File: 李院长 MgO-C C15-骨 1400-200 @ S1-2.csv
#EXPORTTYPE:       ,DATA ALL
#FILE:             ,李院长 MgO-C C15-骨 C15-基 1400.ngb-dl9
#FORMAT:           ,NETZSCH5
#FTYPE:            ,ANSI
#IDENTITY:         ,C15-骨
#DECIMAL:          ,POINT
#SEPARATOR:        ,COMMA
#MTYPE:            ,DIL
#INSTRUMENT:       ,NETZSCH DIL 402SU
#PROJECT:          ,123
#DATE/TIME:        ,2025/6/5 17:20:27 (UTC+8)
#CORR. FILE:       ,石墨炉 1400度-1.ngb-cl9
#TEMPCAL:          ,TCALZERO.TMX
#LABORATORY:       ,wust
#OPERATOR:         ,
#REMARK:           ,
#SAMPLE:           ,镁碳
#SAMPLE LENGTH /mm:,25.96
#MATERIAL:         ,镁碳
#MEASMODE:         ,Standard Expansion
#M.RANGE /μm:      ,50000
#CORR. CODE:       ,080
#RANGE:            ,1403°C/5.0(K/min)/200°C
#SEGMENT:          ,S2/2
#SEG. 2:           ,1403°C/5.0(K/min)/200°C
#Tref:             ,210.0°C

##Temp./°C,Time/min,dL/Lo,Force/N,Gas Flow(protective)/(ml/min),m. CTE(2)/(1/K)
 201.07,516.183,-6.003182e-006,0.29999,60.00000,5.330120e-006
 209.07,514.582, 3.713337e-005,0.29999,60.00000,4.766788e-006
 217.07,513.014, 7.150828e-005,0.29996,60.00000,4.231935e-006
 225.07,511.464, 1.098996e-004,0.29999,60.00000,4.530633e-006
 233.07,509.861, 1.513220e-004,0.29997,60.00000,4.757652e-006
 241.07,508.279, 1.939159e-004,0.30001,60.00000,4.902570e-006
 249.07,506.724, 2.339234e-004,0.29999,60.00000,4.922824e-006
 257.07,505.141, 2.732870e-004,0.29999,60.00000,4.922434e-006
 265.07,503.561, 3.193279e-004,0.29999,60.00000,5.043335e-006
 273.07,501.983, 3.639112e-004,0.29997,60.00000,5.110638e-006
 281.07,500.415, 4.021867e-004,0.29998,60.00000,5.073915e-006
 289.07,498.827, 4.455994e-004,0.30001,60.00000,5.109657e-006
 297.07,497.27, 4.851393e-004,0.30000,60.00000,5.093962e-006
 305.07,495.702, 5.299936e-004,0.30002,60.00000,5.137344e-006
 313.07,494.154, 5.730058e-004,0.30001,60.00000,5.155568e-006
 321.07,492.587, 6.204910e-004,0.29996,60.00000,5.211972e-006
 329.07,491.021, 6.668170e-004,0.30001,60.00000,5.250956e-006
 337.07,489.45, 7.161359e-004,0.30002,60.00000,5.308237e-006
 345.07,487.87, 7.592350e-004,0.30000,60.00000,5.313347e-006
 353.07,486.305, 8.095990e-004,0.30000,60.00000,5.367864e-006
 361.07,484.722, 8.548551e-004,0.30003,60.00000,5.383334e-006
 369.07,483.148, 9.042205e-004,0.30001,60.00000,5.422999e-006
 377.07,481.582, 9.510200e-004,0.29999,60.00000,5.443442e-006
 385.07,480.026, 1.001635e-003,0.30002,60.00000,5.483635e-006
 393.07,478.466, 1.049029e-003,0.30003,60.00000,5.502906e-006
 401.07,476.9, 1.099294e-003,0.30002,60.00000,5.535806e-006
 409.07,475.334, 1.150880e-003,0.29997,60.00000,5.572338e-006
 417.07,473.768, 1.202332e-003,0.29997,60.00000,5.605464e-006
 425.07,472.195, 1.251556e-003,0.30002,60.00000,5.625912e-006
 433.07,470.613, 1.306557e-003,0.29999,60.00000,5.670696e-006
 441.07,469.035, 1.361101e-003,0.29998,60.00000,5.710518e-006
 449.07,467.447, 1.412851e-003,0.30000,60.00000,5.735781e-006
 457.07,465.89, 1.464068e-003,0.29997,60.00000,5.757415e-006
 465.07,464.328, 1.516646e-003,0.29997,60.00000,5.782982e-006
 473.07,462.762, 1.573130e-003,0.30000,60.00000,5.821841e-006
 481.07,461.194, 1.625903e-003,0.29999,60.00000,5.844727e-006
 489.07,459.612, 1.684045e-003,0.29999,60.00000,5.885411e-006
 497.07,458.03, 1.741266e-003,0.29997,60.00000,5.920790e-006
 505.07,456.445, 1.798843e-003,0.29998,60.00000,5.955357e-006
 513.07,454.85, 1.855315e-003,0.29999,60.00000,5.984502e-006
 521.07,453.262, 1.912501e-003,0.30000,60.00000,6.014416e-006
 529.07,451.667, 1.970221e-003,0.29999,60.00000,6.044541e-006
 537.07,450.101, 2.028370e-003,0.29995,60.00000,6.074444e-006
 545.07,448.507, 2.090164e-003,0.30000,60.00000,6.113881e-006
 553.07,446.92, 2.144285e-003,0.29999,60.00000,6.128947e-006
 561.07,445.308, 2.201564e-003,0.30001,60.00000,6.152504e-006
 569.07,443.704, 2.262334e-003,0.29999,60.00000,6.184657e-006
 577.07,442.091, 2.326604e-003,0.30000,60.00000,6.224996e-006
 585.07,440.467, 2.388760e-003,0.29999,60.00000,6.257980e-006
 593.07,438.859, 2.453131e-003,0.29996,60.00000,6.295299e-006
 601.07,437.271, 2.514585e-003,0.30001,60.00000,6.323621e-006
 609.07,435.674, 2.576417e-003,0.30001,60.00000,6.351746e-006
 617.07,434.053, 2.639335e-003,0.29999,60.00000,6.381555e-006
 625.07,432.426, 2.700465e-003,0.29999,60.00000,6.405840e-006
 633.07,430.826, 2.766978e-003,0.29998,60.00000,6.441962e-006
 641.07,429.219, 2.834063e-003,0.30002,60.00000,6.477987e-006
 649.07,427.596, 2.899721e-003,0.29997,60.00000,6.509572e-006
 657.07,426.002, 2.965820e-003,0.30003,60.00000,6.540828e-006
 665.07,424.402, 3.031359e-003,0.30001,60.00000,6.569930e-006
 673.07,422.807, 3.099112e-003,0.30000,60.00000,6.602705e-006
 681.07,421.201, 3.169424e-003,0.29999,60.00000,6.639819e-006
 689.07,419.614, 3.241249e-003,0.30000,60.00000,6.678844e-006
 697.07,418.013, 3.309543e-003,0.29999,60.00000,6.709430e-006
 705.07,416.396, 3.368686e-003,0.30000,60.00000,6.720424e-006
 713.07,414.784, 3.438735e-003,0.30001,60.00000,6.752819e-006
 721.07,413.173, 3.509376e-003,0.29997,60.00000,6.785320e-006
 729.07,411.581, 3.577653e-003,0.30000,60.00000,6.812298e-006
 737.07,409.986, 3.647807e-003,0.30001,60.00000,6.841997e-006
 745.07,408.388, 3.717969e-003,0.29999,60.00000,6.870839e-006
 753.07,406.782, 3.788364e-003,0.29999,60.00000,6.899212e-006
 761.07,405.172, 3.860181e-003,0.30000,60.00000,6.929437e-006
 769.07,403.555, 3.935747e-003,0.29999,60.00000,6.965405e-006
 777.07,401.936, 4.009025e-003,0.30000,60.00000,6.996357e-006
 785.07,400.322, 4.080423e-003,0.30000,60.00000,7.023214e-006
 793.07,398.727, 4.151089e-003,0.30000,60.00000,7.048073e-006
 801.07,397.131, 4.222877e-003,0.30001,60.00000,7.074076e-006
 809.07,395.527, 4.293507e-003,0.30001,60.00000,7.097512e-006
 817.07,393.898, 4.365374e-003,0.29989,60.00000,7.122413e-006
 825.07,392.288, 4.440373e-003,0.29999,60.00000,7.151605e-006
 833.07,390.674, 4.515332e-003,0.29999,60.00000,7.180174e-006
 841.07,389.065, 4.589657e-003,0.29999,60.00000,7.206900e-006
 849.07,387.464, 4.664478e-003,0.29999,60.00000,7.233759e-006
 857.07,385.877, 4.740807e-003,0.29998,60.00000,7.262293e-006
 865.07,384.259, 4.815873e-003,0.30000,60.00000,7.288161e-006
 873.07,382.649, 4.892897e-003,0.29999,60.00000,7.316451e-006
 881.07,381.027, 4.971210e-003,0.29999,60.00000,7.345914e-006
 889.07,379.408, 5.053086e-003,0.29998,60.00000,7.379984e-006
 897.07,377.784, 5.133217e-003,0.30000,60.00000,7.410621e-006
 905.07,376.195, 5.216448e-003,0.30001,60.00000,7.445107e-006
 913.07,374.623, 5.300962e-003,0.29997,60.00000,7.480574e-006
 921.07,373.023, 5.382263e-003,0.30000,60.00000,7.510782e-006
 929.07,371.379, 5.465070e-003,0.29998,60.00000,7.542379e-006
 937.07,369.792, 5.551084e-003,0.30002,60.00000,7.577673e-006
 945.07,368.165, 5.637411e-003,0.30002,60.00000,7.612681e-006
 953.07,366.55, 5.726535e-003,0.30000,60.00000,7.650646e-006
 961.07,364.957, 5.814486e-003,0.29998,60.00000,7.686199e-006
 969.07,363.371, 5.903311e-003,0.29998,60.00000,7.722227e-006
 977.07,361.782, 5.993999e-003,0.29999,60.00000,7.759939e-006
 985.07,360.164, 6.082660e-003,0.30001,60.00000,7.794200e-006
 993.07,358.54, 6.177353e-003,0.30001,60.00000,7.835508e-006
1001.07,356.922, 6.272928e-003,0.30000,60.00000,7.877076e-006
1009.07,355.29, 6.370236e-003,0.30000,60.00000,7.920041e-006
1017.07,353.695, 6.469410e-003,0.30001,60.00000,7.964391e-006
1025.07,352.096, 6.562184e-003,0.29994,60.00000,8.000073e-006
1033.07,350.515, 6.659982e-003,0.29998,60.00000,8.041010e-006
1041.07,348.906, 6.754122e-003,0.29997,60.00000,8.076975e-006
1049.07,347.27, 6.852409e-003,0.30000,60.00000,8.117089e-006
1057.07,345.648, 6.953576e-003,0.30000,60.00000,8.159840e-006
1065.07,344.028, 7.051749e-003,0.29993,60.00000,8.198332e-006
1073.07,342.431, 7.153574e-003,0.29998,60.00000,8.240298e-006
1081.07,340.845, 7.253526e-003,0.29997,60.00000,8.279374e-006
1089.07,339.248, 7.355119e-003,0.30000,60.00000,8.319600e-006
1097.07,337.639, 7.455665e-003,0.29998,60.00000,8.357926e-006
1105.07,336.018, 7.555721e-003,0.29999,60.00000,8.395051e-006
1113.07,334.404, 7.658207e-003,0.30000,60.00000,8.434137e-006
1121.07,332.793, 7.761736e-003,0.29993,60.00000,8.473750e-006
1129.07,331.198, 7.866551e-003,0.30002,60.00000,8.513975e-006
1137.07,329.573, 7.968172e-003,0.30000,60.00000,8.550152e-006
1145.07,327.994, 8.072733e-003,0.29997,60.00000,8.588782e-006
1153.07,326.409, 8.175374e-003,0.30002,60.00000,8.624791e-006
1161.07,324.762, 8.275624e-003,0.30000,60.00000,8.657652e-006
1169.07,323.093, 8.378638e-003,0.29997,60.00000,8.692826e-006
1177.07,321.447, 8.482804e-003,0.30000,60.00000,8.728663e-006
1185.07,319.842, 8.586741e-003,0.30001,60.00000,8.763544e-006
1193.07,318.225, 8.698154e-003,0.30000,60.00000,8.805757e-006
1201.07,316.847, 8.804978e-003,0.29998,60.00000,8.842139e-006
1209.07,314.966, 8.910570e-003,0.29999,60.00000,8.877407e-006
1217.07,313.702, 9.018692e-003,0.29998,60.00000,8.913877e-006
1225.07,311.596, 9.119384e-003,0.29998,60.00000,8.943261e-006
1233.07,310.425, 9.242551e-003,0.29999,60.00000,8.993273e-006
1241.07,308.328, 9.336227e-003,0.30001,60.00000,9.014810e-006
1249.07,307.095, 9.458159e-003,0.30000,60.00000,9.062315e-006
1257.07,305.605, 9.555771e-003,0.29999,60.00000,9.086212e-006
1265.07,303.656, 9.668574e-003,0.29997,60.00000,9.124539e-006
1273.07,302.414, 9.779530e-003,0.29997,60.00000,9.160062e-006
1281.07,300.255, 9.888056e-003,0.29991,60.00000,9.193262e-006
1289.07,299, 1.001110e-002,0.29998,60.00000,9.238840e-006
1297.07,297.224, 1.011724e-002,0.30000,60.00000,9.268724e-006
1305.07,295.58, 1.023849e-002,0.29997,60.00000,9.311640e-006
1313.07,294.003, 1.035717e-002,0.29998,60.00000,9.351695e-006
1321.07,292.401, 1.047818e-002,0.29999,60.00000,9.393283e-006
1329.07,290.743, 1.059661e-002,0.30002,60.00000,9.431957e-006
1337.07,289.098, 1.072593e-002,0.29998,60.00000,9.479720e-006
1345.07,287.518, 1.085712e-002,0.29999,60.00000,9.528489e-006
1353.07,285.896, 1.098778e-002,0.29998,60.00000,9.576067e-006
1361.07,284.206, 1.111994e-002,0.29998,60.00000,9.624417e-006
1369.07,282.652, 1.125697e-002,0.29999,60.00000,9.676170e-006
1377.07,281.165, 1.140191e-002,0.30000,60.00000,9.734079e-006
1385.07,279.765, 1.155212e-002,0.29999,60.00000,9.795614e-006
1393.07,278.394, 1.170763e-002,0.30001,60.00000,9.860804e-006
1399.07,277.321, 1.182894e-002,0.29999,60.00000,9.912969e-006