File: 李院长 MgO-C C9-骨 1400-200 @ S1-2.csv
#EXPORTTYPE:       ,DATA ALL
#FILE:             ,李院长 MgO-C C9-骨 C9-基 1400.ngb-dl9
#FORMAT:           ,NETZSCH5
#FTYPE:            ,ANSI
#IDENTITY:         ,C9-骨
#DECIMAL:          ,POINT
#SEPARATOR:        ,COMMA
#MTYPE:            ,DIL
#INSTRUMENT:       ,NETZSCH DIL 402SU
#PROJECT:          ,123
#DATE/TIME:        ,2025/6/4 16:10:34 (UTC+8)
#CORR. FILE:       ,石墨炉 1400度-1.ngb-cl9
#TEMPCAL:          ,TCALZERO.TMX
#LABORATORY:       ,wust
#OPERATOR:         ,
#REMARK:           ,
#SAMPLE:           ,镁碳
#SAMPLE LENGTH /mm:,25.64
#MATERIAL:         ,镁碳
#MEASMODE:         ,Standard Expansion
#M.RANGE /μm:      ,50000
#CORR. CODE:       ,080
#RANGE:            ,1403°C/5.0(K/min)/200°C
#SEGMENT:          ,S2/2
#SEG. 2:           ,1403°C/5.0(K/min)/200°C
#Tref:             ,210.0°C

##Temp./°C,Time/min,dL/Lo,Force/N,Gas Flow(protective)/(ml/min),m. CTE(2)/(1/K)
 200.937,516.183,9.742425e-005,0.30000,60.00000,6.029877e-006
 208.937,514.608,1.455397e-004,0.29997,60.00000,5.570010e-006
 216.937,513.057,1.883074e-004,0.30003,60.00000,5.225296e-006
 224.937,511.478,2.376367e-004,0.29999,60.00000,5.729158e-006
 232.937,509.9,2.885723e-004,0.29998,60.00000,5.950261e-006
 240.937,508.332,3.384774e-004,0.29999,60.00000,6.024911e-006
 248.937,506.756,3.862807e-004,0.29997,60.00000,6.015099e-006
 256.937,505.176,4.385147e-004,0.30001,60.00000,6.102671e-006
 264.937,503.598,4.920392e-004,0.30002,60.00000,6.188351e-006
 272.937,502.02,5.421703e-004,0.29999,60.00000,6.198024e-006
 280.937,500.441,5.910216e-004,0.29999,60.00000,6.188000e-006
 288.937,498.869,6.430173e-004,0.30003,60.00000,6.219628e-006
 296.937,497.306,6.967802e-004,0.30000,60.00000,6.265494e-006
 304.937,495.745,7.493049e-004,0.29999,60.00000,6.290794e-006
 312.937,494.184,8.020894e-004,0.30002,60.00000,6.314545e-006
 320.937,492.62,8.566494e-004,0.30000,60.00000,6.351014e-006
 328.937,491.05,9.240229e-004,0.30001,60.00000,6.490398e-006
 336.937,489.485,9.828513e-004,0.30001,60.00000,6.544793e-006
 344.937,487.903,1.041407e-003,0.29996,60.00000,6.590665e-006
 352.937,486.334,1.101667e-003,0.30000,60.00000,6.643431e-006
 360.937,484.741,1.164056e-003,0.30003,60.00000,6.704565e-006
 368.937,483.175,1.222076e-003,0.29999,60.00000,6.732326e-006
 376.937,481.618,1.283139e-003,0.30000,60.00000,6.775503e-006
 384.937,480.057,1.340694e-003,0.29999,60.00000,6.794722e-006
 392.937,478.508,1.405532e-003,0.30003,60.00000,6.851806e-006
 400.937,476.936,1.465284e-003,0.30002,60.00000,6.877838e-006
 408.937,475.37,1.524700e-003,0.29997,60.00000,6.899659e-006
 416.937,473.798,1.584563e-003,0.30000,60.00000,6.922163e-006
 424.937,472.215,1.637659e-003,0.30008,60.00000,6.911652e-006
 432.937,470.643,1.700132e-003,0.29996,60.00000,6.943854e-006
 440.937,469.054,1.761743e-003,0.29999,60.00000,6.970191e-006
 448.937,467.488,1.823492e-003,0.30004,60.00000,6.995277e-006
 456.937,465.922,1.882939e-003,0.30002,60.00000,7.009381e-006
 464.937,464.364,1.944725e-003,0.30000,60.00000,7.031734e-006
 472.937,462.79,2.007972e-003,0.29996,60.00000,7.058378e-006
 480.937,461.218,2.071196e-003,0.30000,60.00000,7.083314e-006
 488.937,459.638,2.130643e-003,0.30000,60.00000,7.093165e-006
 496.937,458.051,2.195702e-003,0.29996,60.00000,7.122164e-006
 504.937,456.463,2.260523e-003,0.30001,60.00000,7.148752e-006
 512.937,454.865,2.321171e-003,0.30001,60.00000,7.160246e-006
 520.937,453.276,2.385340e-003,0.30005,60.00000,7.182346e-006
 528.937,451.706,2.450780e-003,0.29998,60.00000,7.207348e-006
 536.937,450.123,2.515830e-003,0.29999,60.00000,7.230082e-006
 544.937,448.539,2.581939e-003,0.29998,60.00000,7.254754e-006
 552.937,446.941,2.650968e-003,0.29998,60.00000,7.286757e-006
 560.937,445.342,2.718424e-003,0.30001,60.00000,7.312896e-006
 568.937,443.738,2.791745e-003,0.30000,60.00000,7.354096e-006
 576.937,442.129,2.862496e-003,0.29998,60.00000,7.386655e-006
 584.937,440.505,2.933039e-003,0.30004,60.00000,7.417131e-006
 592.937,438.9,3.004079e-003,0.29999,60.00000,7.447618e-006
 600.937,437.309,3.072166e-003,0.30003,60.00000,7.469420e-006
 608.937,435.706,3.133601e-003,0.29998,60.00000,7.473686e-006
 616.937,434.101,3.201434e-003,0.29999,60.00000,7.493416e-006
 624.937,432.468,3.282287e-003,0.30000,60.00000,7.543916e-006
 632.937,430.852,3.348514e-003,0.30004,60.00000,7.557725e-006
 640.937,429.244,3.428062e-003,0.30000,60.00000,7.602012e-006
 648.937,427.612,3.506890e-003,0.29998,60.00000,7.643039e-006
 656.937,426.014,3.585554e-003,0.30001,60.00000,7.682211e-006
 664.937,424.421,3.664864e-003,0.29997,60.00000,7.721511e-006
 672.937,422.845,3.746849e-003,0.29999,60.00000,7.765175e-006
 680.937,421.241,3.825315e-003,0.30001,60.00000,7.799892e-006
 688.937,419.63,3.909988e-003,0.30002,60.00000,7.846387e-006
 696.937,418.014,3.995524e-003,0.29999,60.00000,7.893107e-006
 704.937,416.418,4.076950e-003,0.30001,60.00000,7.929976e-006
 712.937,414.792,4.161007e-003,0.30000,60.00000,7.971089e-006
 720.937,413.196,4.241493e-003,0.29998,60.00000,8.003738e-006
 728.937,411.608,4.324891e-003,0.29997,60.00000,8.041073e-006
 736.937,410.011,4.411137e-003,0.29997,60.00000,8.082607e-006
 744.937,408.408,4.493394e-003,0.30002,60.00000,8.115567e-006
 752.937,406.809,4.580808e-003,0.30002,60.00000,8.156980e-006
 760.937,405.186,4.669457e-003,0.30000,60.00000,8.199442e-006
 768.937,403.566,4.758237e-003,0.29998,60.00000,8.240932e-006
 776.937,401.952,4.848678e-003,0.29999,60.00000,8.284190e-006
 784.937,400.355,4.939361e-003,0.29996,60.00000,8.326624e-006
 792.937,398.76,5.031033e-003,0.30001,60.00000,8.369652e-006
 800.937,397.152,5.122192e-003,0.30001,60.00000,8.410603e-006
 808.937,395.539,5.217206e-003,0.30005,60.00000,8.456823e-006
 816.937,393.933,5.320213e-003,0.30002,60.00000,8.515075e-006
 824.937,392.321,5.417840e-003,0.30000,60.00000,8.563066e-006
 832.937,390.705,5.516463e-003,0.30001,60.00000,8.611457e-006
 840.937,389.087,5.615332e-003,0.30001,60.00000,8.658979e-006
 848.937,387.489,5.727719e-003,0.29999,60.00000,8.726441e-006
 856.937,385.906,5.821287e-003,0.30000,60.00000,8.763162e-006
 864.937,384.285,5.911513e-003,0.30003,60.00000,8.793923e-006
 872.937,382.67,6.009556e-003,0.29997,60.00000,8.835662e-006
 880.937,381.055,6.114835e-003,0.30000,60.00000,8.887195e-006
 888.937,379.437,6.217028e-003,0.30005,60.00000,8.933009e-006
 896.937,377.83,6.335126e-003,0.29997,60.00000,9.000921e-006
 904.937,376.253,6.438754e-003,0.30003,60.00000,9.046424e-006
 912.937,374.668,6.541299e-003,0.30002,60.00000,9.089303e-006
 920.937,373.033,6.646576e-003,0.30000,60.00000,9.135122e-006
 928.937,371.39,6.748459e-003,0.30001,60.00000,9.175262e-006
 936.937,369.815,6.859781e-003,0.29999,60.00000,9.227357e-006
 944.937,368.194,6.968540e-003,0.29991,60.00000,9.274912e-006
 952.937,366.583,7.083483e-003,0.30000,60.00000,9.329729e-006
 960.937,365.009,7.191938e-003,0.29996,60.00000,9.374742e-006
 968.937,363.416,7.329383e-003,0.30001,60.00000,9.457045e-006
 976.937,361.81,7.437692e-003,0.30001,60.00000,9.499673e-006
 984.937,360.181,7.546743e-003,0.30005,60.00000,9.542287e-006
 992.937,358.562,7.672957e-003,0.30001,60.00000,9.605978e-006
1000.94,356.941,7.789916e-003,0.30001,60.00000,9.656688e-006
1008.94,355.324,7.907400e-003,0.29999,60.00000,9.707060e-006
1016.94,353.74,8.020819e-003,0.29998,60.00000,9.751359e-006
1024.94,352.155,8.134981e-003,0.30000,60.00000,9.795741e-006
1032.94,350.551,8.248044e-003,0.30002,60.00000,9.837936e-006
1040.94,348.912,8.363395e-003,0.29997,60.00000,9.882031e-006
1048.94,347.298,8.479532e-003,0.29996,60.00000,9.926321e-006
1056.94,345.681,8.608106e-003,0.30001,60.00000,9.984267e-006
1064.94,344.065,8.729277e-003,0.30000,60.00000,1.003261e-005
1072.94,342.472,8.847048e-003,0.29995,60.00000,1.007604e-005
1080.94,340.889,8.961055e-003,0.29996,60.00000,1.011437e-005
1088.94,339.279,9.078975e-003,0.29998,60.00000,1.015647e-005
1096.94,337.677,9.202245e-003,0.29998,60.00000,1.020382e-005
1104.94,336.052,9.318523e-003,0.29996,60.00000,1.024254e-005
1112.94,334.422,9.437607e-003,0.29995,60.00000,1.028374e-005
1120.94,332.814,9.561069e-003,0.30001,60.00000,1.032894e-005
1128.94,331.248,9.689976e-003,0.29998,60.00000,1.037922e-005
1136.94,329.651,9.813575e-003,0.30001,60.00000,1.042300e-005
1144.94,328.041,9.932106e-003,0.30001,60.00000,1.046066e-005
1152.94,326.383,1.005327e-002,0.30002,60.00000,1.050041e-005
1160.94,324.724,1.017346e-002,0.30003,60.00000,1.053844e-005
1168.94,323.092,1.029325e-002,0.30000,60.00000,1.057540e-005
1176.94,321.409,1.041854e-002,0.30000,60.00000,1.061761e-005
1184.94,320.1,1.055571e-002,0.29999,60.00000,1.067085e-005
1192.94,318.284,1.067151e-002,0.30023,60.00000,1.070203e-005
1200.94,316.587,1.079347e-002,0.29997,60.00000,1.073873e-005
1208.94,315.162,1.092921e-002,0.30001,60.00000,1.078850e-005
1216.94,313.323,1.103466e-002,0.30000,60.00000,1.080775e-005
1224.94,311.823,1.117418e-002,0.29997,60.00000,1.086004e-005
1232.94,310.467,1.128902e-002,0.29999,60.00000,1.088701e-005
1240.94,308.522,1.141673e-002,0.29997,60.00000,1.092698e-005
1248.94,307.364,1.153722e-002,0.30002,60.00000,1.095823e-005
1256.94,305.137,1.164536e-002,0.30000,60.00000,1.097831e-005
1264.94,304,1.177597e-002,0.30011,60.00000,1.101831e-005
1272.94,301.958,1.188168e-002,0.29996,60.00000,1.103518e-005
1280.94,300.434,1.202183e-002,0.30000,60.00000,1.108357e-005
1288.94,299.145,1.214606e-002,0.29998,60.00000,1.111632e-005
1296.94,297.161,1.226075e-002,0.29998,60.00000,1.114030e-005
1304.94,295.709,1.239299e-002,0.30000,60.00000,1.117958e-005
1312.94,294.225,1.251715e-002,0.29996,60.00000,1.121089e-005
1320.94,292.352,1.264294e-002,0.30001,60.00000,1.124353e-005
1328.94,290.649,1.277431e-002,0.30001,60.00000,1.128059e-005
1336.94,289.187,1.291659e-002,0.29999,60.00000,1.132672e-005
1344.94,287.446,1.305736e-002,0.30002,60.00000,1.137102e-005
1352.94,285.883,1.320223e-002,0.30001,60.00000,1.141803e-005
1360.94,284.229,1.334880e-002,0.30000,60.00000,1.146607e-005
1368.94,282.64,1.350245e-002,0.29998,60.00000,1.151943e-005
1376.94,281.146,1.366370e-002,0.30001,60.00000,1.157872e-005
1384.94,279.79,1.383595e-002,0.29998,60.00000,1.164645e-005
1392.94,278.411,1.401912e-002,0.30000,60.00000,1.172258e-005
1399.94,277.126,1.420063e-002,0.29985,60.00000,1.180595e-005