File: 李院长 MgO-C C15-基 1400-200 @ S2-2.csv
#EXPORTTYPE:       ,DATA ALL
#FILE:             ,李院长 MgO-C C15-骨 C15-基 1400.ngb-dl9
#FORMAT:           ,NETZSCH5
#FTYPE:            ,ANSI
#IDENTITY:         ,C15-基
#DECIMAL:          ,POINT
#SEPARATOR:        ,COMMA
#MTYPE:            ,DIL
#INSTRUMENT:       ,NETZSCH DIL 402SU
#PROJECT:          ,123
#DATE/TIME:        ,2025/6/5 17:20:27 (UTC+8)
#CORR. FILE:       ,石墨炉 1400度-1.ngb-cl9
#TEMPCAL:          ,TCALZERO.TMX
#LABORATORY:       ,wust
#OPERATOR:         ,
#REMARK:           ,
#SAMPLE:           ,镁碳
#SAMPLE LENGTH /mm:,25.68
#MATERIAL:         ,镁碳
#MEASMODE:         ,Standard Expansion
#M.RANGE /μm:      ,50000
#CORR. CODE:       ,080
#RANGE:            ,1403°C/5.0(K/min)/200°C
#SEGMENT:          ,S2/2
#SEG. 2:           ,1403°C/5.0(K/min)/200°C
#Tref:             ,210.0°C

##Temp./°C,Time/min,dL/Lo,Force/N,Gas Flow(protective)/(ml/min),m. CTE(2)/(1/K)
 201.07,516.183,-2.986154e-004,0.29999,60.00000,4.955325e-006
 209.07,514.582,-2.584043e-004,0.30000,60.00000,4.598539e-006
 217.07,513.014,-2.235458e-004,0.30000,60.00000,4.359981e-006
 225.07,511.464,-1.835836e-004,0.30000,60.00000,4.694862e-006
 233.07,509.861,-1.407525e-004,0.30000,60.00000,4.926090e-006
 241.07,508.279,-9.678143e-005,0.30001,60.00000,5.071929e-006
 249.07,506.724,-5.524983e-005,0.30002,60.00000,5.096515e-006
 257.07,505.141,-1.585214e-005,0.30000,60.00000,5.067327e-006
 265.07,503.561, 3.010377e-005,0.30001,60.00000,5.165637e-006
 273.07,501.983, 7.614567e-005,0.30000,60.00000,5.240556e-006
 281.07,500.415, 1.179455e-004,0.29998,60.00000,5.238800e-006
 289.07,498.827, 1.649619e-004,0.29998,60.00000,5.303438e-006
 297.07,497.27, 2.104977e-004,0.29998,60.00000,5.338786e-006
 305.07,495.702, 2.582846e-004,0.29998,60.00000,5.392425e-006
 313.07,494.154, 3.020219e-004,0.29996,60.00000,5.397869e-006
 321.07,492.587, 3.498443e-004,0.30001,60.00000,5.439868e-006
 329.07,491.021, 3.981006e-004,0.30000,60.00000,5.479755e-006
 337.07,489.45, 4.492327e-004,0.30000,60.00000,5.536890e-006
 345.07,487.87, 4.965145e-004,0.29999,60.00000,5.559442e-006
 353.07,486.305, 5.473758e-004,0.30000,60.00000,5.603658e-006
 361.07,484.722, 5.932887e-004,0.29998,60.00000,5.610994e-006
 369.07,483.148, 6.433352e-004,0.29999,60.00000,5.643495e-006
 377.07,481.582, 6.941500e-004,0.29998,60.00000,5.677413e-006
 385.07,480.026, 7.449611e-004,0.29998,60.00000,5.708029e-006
 393.07,478.466, 7.951604e-004,0.30000,60.00000,5.732814e-006
 401.07,476.9, 8.456033e-004,0.29999,60.00000,5.757032e-006
 409.07,475.334, 8.979428e-004,0.29999,60.00000,5.788453e-006
 417.07,473.768, 9.499534e-004,0.30002,60.00000,5.815923e-006
 425.07,472.195, 1.000278e-003,0.30002,60.00000,5.833664e-006
 433.07,470.613, 1.056512e-003,0.30001,60.00000,5.876526e-006
 441.07,469.035, 1.113056e-003,0.30000,60.00000,5.917876e-006
 449.07,467.447, 1.170132e-003,0.30000,60.00000,5.958480e-006
 457.07,465.89, 1.222676e-003,0.29999,60.00000,5.978275e-006
 465.07,464.328, 1.277523e-003,0.29999,60.00000,6.005809e-006
 473.07,462.762, 1.334161e-003,0.29998,60.00000,6.038476e-006
 481.07,461.194, 1.390130e-003,0.29997,60.00000,6.066759e-006
 489.07,459.612, 1.448191e-003,0.30001,60.00000,6.100788e-006
 497.07,458.03, 1.504226e-003,0.30002,60.00000,6.126033e-006
 505.07,456.445, 1.562381e-003,0.29999,60.00000,6.156994e-006
 513.07,454.85, 1.619247e-003,0.29999,60.00000,6.182119e-006
 521.07,453.262, 1.678710e-003,0.30004,60.00000,6.214267e-006
 529.07,451.667, 1.736000e-003,0.30000,60.00000,6.238036e-006
 537.07,450.101, 1.794240e-003,0.30000,60.00000,6.263480e-006
 545.07,448.507, 1.855911e-003,0.29999,60.00000,6.298041e-006
 553.07,446.92, 1.914299e-003,0.30001,60.00000,6.321246e-006
 561.07,445.308, 1.971397e-003,0.30000,60.00000,6.339908e-006
 569.07,443.704, 2.028401e-003,0.29999,60.00000,6.357397e-006
 577.07,442.091, 2.091965e-003,0.29999,60.00000,6.392051e-006
 585.07,440.467, 2.153483e-003,0.30002,60.00000,6.419770e-006
 593.07,438.859, 2.218342e-003,0.29995,60.00000,6.454983e-006
 601.07,437.271, 2.278340e-003,0.30000,60.00000,6.476316e-006
 609.07,435.674, 2.337912e-003,0.30000,60.00000,6.495715e-006
 617.07,434.053, 2.401211e-003,0.30000,60.00000,6.523630e-006
 625.07,432.426, 2.462275e-003,0.30001,60.00000,6.545020e-006
 633.07,430.826, 2.530865e-003,0.29998,60.00000,6.583419e-006
 641.07,429.219, 2.597428e-003,0.30000,60.00000,6.615607e-006
 649.07,427.596, 2.663009e-003,0.30000,60.00000,6.644512e-006
 657.07,426.002, 2.729322e-003,0.29999,60.00000,6.673829e-006
 665.07,424.402, 2.796069e-003,0.29999,60.00000,6.703250e-006
 673.07,422.807, 2.863614e-003,0.29997,60.00000,6.733270e-006
 681.07,421.201, 2.931473e-003,0.30000,60.00000,6.762960e-006
 689.07,419.614, 3.002341e-003,0.30001,60.00000,6.797931e-006
 697.07,418.013, 3.066808e-003,0.29999,60.00000,6.818704e-006
 705.07,416.396, 3.131656e-003,0.29999,60.00000,6.839457e-006
 713.07,414.784, 3.200274e-003,0.29998,60.00000,6.867112e-006
 721.07,413.173, 3.274447e-003,0.29997,60.00000,6.904735e-006
 729.07,411.581, 3.345881e-003,0.30001,60.00000,6.935954e-006
 737.07,409.986, 3.417241e-003,0.29998,60.00000,6.966067e-006
 745.07,408.388, 3.488345e-003,0.30001,60.00000,6.994813e-006
 753.07,406.782, 3.563648e-003,0.30002,60.00000,7.030397e-006
 761.07,405.172, 3.641044e-003,0.29997,60.00000,7.068844e-006
 769.07,403.555, 3.717083e-003,0.30000,60.00000,7.103662e-006
 777.07,401.936, 3.792822e-003,0.30000,60.00000,7.137003e-006
 785.07,400.322, 3.865972e-003,0.29999,60.00000,7.164950e-006
 793.07,398.727, 3.938454e-003,0.30000,60.00000,7.190979e-006
 801.07,397.131, 4.011180e-003,0.29998,60.00000,7.216635e-006
 809.07,395.527, 4.087708e-003,0.29998,60.00000,7.248012e-006
 817.07,393.898, 4.165100e-003,0.30000,60.00000,7.280032e-006
 825.07,392.288, 4.240315e-003,0.29999,60.00000,7.307521e-006
 833.07,390.674, 4.316070e-003,0.30000,60.00000,7.335370e-006
 841.07,389.065, 4.393919e-003,0.30000,60.00000,7.365712e-006
 849.07,387.464, 4.472348e-003,0.29999,60.00000,7.396227e-006
 857.07,385.877, 4.548853e-003,0.30000,60.00000,7.423025e-006
 865.07,384.259, 4.627610e-003,0.29999,60.00000,7.452564e-006
 873.07,382.649, 4.705698e-003,0.30001,60.00000,7.480477e-006
 881.07,381.027, 4.787895e-003,0.29999,60.00000,7.513771e-006
 889.07,379.408, 4.870347e-003,0.30001,60.00000,7.546714e-006
 897.07,377.784, 4.951992e-003,0.29998,60.00000,7.577611e-006
 905.07,376.195, 5.034071e-003,0.30001,60.00000,7.608519e-006
 913.07,374.623, 5.117924e-003,0.30001,60.00000,7.641186e-006
 921.07,373.023, 5.201501e-003,0.30001,60.00000,7.672787e-006
 929.07,371.379, 5.284111e-003,0.30000,60.00000,7.702309e-006
 937.07,369.792, 5.369046e-003,0.30000,60.00000,7.734358e-006
 945.07,368.165, 5.456655e-003,0.30001,60.00000,7.769406e-006
 953.07,366.55, 5.545590e-003,0.29999,60.00000,7.805429e-006
 961.07,364.957, 5.631760e-003,0.29994,60.00000,7.836960e-006
 969.07,363.371, 5.719467e-003,0.30000,60.00000,7.869929e-006
 977.07,361.782, 5.807483e-003,0.29999,60.00000,7.902615e-006
 985.07,360.164, 5.895829e-003,0.29998,60.00000,7.934998e-006
 993.07,358.54, 5.988648e-003,0.30002,60.00000,7.972475e-006
1001.07,356.922, 6.079925e-003,0.29999,60.00000,8.007225e-006
1009.07,355.29, 6.172510e-003,0.29999,60.00000,8.042975e-006
1017.07,353.695, 6.267185e-003,0.29998,60.00000,8.080533e-006
1025.07,352.096, 6.358312e-003,0.30001,60.00000,8.113054e-006
1033.07,350.515, 6.451262e-003,0.29998,60.00000,8.147001e-006
1041.07,348.906, 6.542226e-003,0.29999,60.00000,8.178126e-006
1049.07,347.27, 6.634567e-003,0.29998,60.00000,8.210188e-006
1057.07,345.648, 6.733810e-003,0.29997,60.00000,8.249787e-006
1065.07,344.028, 6.831232e-003,0.30000,60.00000,8.286562e-006
1073.07,342.431, 6.929129e-003,0.29998,60.00000,8.323158e-006
1081.07,340.845, 7.027985e-003,0.30000,60.00000,8.360215e-006
1089.07,339.248, 7.123558e-003,0.30001,60.00000,8.392857e-006
1097.07,337.639, 7.222263e-003,0.30000,60.00000,8.428448e-006
1105.07,336.018, 7.320070e-003,0.30001,60.00000,8.462430e-006
1113.07,334.404, 7.417804e-003,0.30000,60.00000,8.495656e-006
1121.07,332.793, 7.521554e-003,0.30000,60.00000,8.534973e-006
1129.07,331.198, 7.625078e-003,0.29999,60.00000,8.573259e-006
1137.07,329.573, 7.728082e-003,0.29999,60.00000,8.610417e-006
1145.07,327.994, 7.831575e-003,0.30000,60.00000,8.647389e-006
1153.07,326.409, 7.933395e-003,0.29999,60.00000,8.682030e-006
1161.07,324.762, 8.037274e-003,0.30000,60.00000,8.718224e-006
1169.07,323.093, 8.140357e-003,0.29999,60.00000,8.752966e-006
1177.07,321.447, 8.247959e-003,0.29999,60.00000,8.791857e-006
1185.07,319.842, 8.355143e-003,0.29997,60.00000,8.829550e-006
1193.07,318.225, 8.470928e-003,0.29999,60.00000,8.875675e-006
1201.07,316.847, 8.579986e-003,0.30000,60.00000,8.913744e-006
1209.07,314.966, 8.690012e-003,0.29997,60.00000,8.952879e-006
1217.07,313.702, 8.803076e-003,0.29995,60.00000,8.993655e-006
1225.07,311.596, 8.908472e-003,0.30002,60.00000,9.027047e-006
1233.07,310.425, 9.038259e-003,0.29998,60.00000,9.082871e-006
1241.07,308.328, 9.139173e-003,0.29998,60.00000,9.110737e-006
1249.07,307.095, 9.264717e-003,0.29999,60.00000,9.160975e-006
1257.07,305.605, 9.366311e-003,0.30001,60.00000,9.187921e-006
1265.07,303.656, 9.489792e-003,0.30000,60.00000,9.235600e-006
1273.07,302.414, 9.605680e-003,0.29999,60.00000,9.274924e-006
1281.07,300.255, 9.726004e-003,0.29997,60.00000,9.318286e-006
1289.07,299, 9.856475e-003,0.30000,60.00000,9.369814e-006
1297.07,297.224, 9.975215e-003,0.30000,60.00000,9.410332e-006
1305.07,295.58, 1.010910e-002,0.29997,60.00000,9.463749e-006
1313.07,294.003, 1.024096e-002,0.30000,60.00000,9.514649e-006
1321.07,292.401, 1.037319e-002,0.30000,60.00000,9.565161e-006
1329.07,290.743, 1.051236e-002,0.30000,60.00000,9.621135e-006
1337.07,289.098, 1.065633e-002,0.30002,60.00000,9.680560e-006
1345.07,287.518, 1.080704e-002,0.29997,60.00000,9.745107e-006
1353.07,285.896, 1.095716e-002,0.30000,60.00000,9.808190e-006
1361.07,284.206, 1.111669e-002,0.30002,60.00000,9.878717e-006
1369.07,282.652, 1.127619e-002,0.30000,60.00000,9.948100e-006
1377.07,281.165, 1.144887e-002,0.30003,60.00000,1.002791e-005
1385.07,279.765, 1.162780e-002,0.29998,60.00000,1.011189e-005
1393.07,278.394, 1.181673e-002,0.29999,60.00000,1.020319e-005
1399.07,277.321, 1.197412e-002,0.30000,60.00000,1.028396e-005