File: 李院长 MgO-C C9-骨 1400 @ S1-1.csv
#EXPORTTYPE:       ,DATA ALL
#FILE:             ,李院长 MgO-C C9-骨 C9-基 1400.ngb-dl9
#FORMAT:           ,NETZSCH5
#FTYPE:            ,ANSI
#IDENTITY:         ,C9-骨
#DECIMAL:          ,POINT
#SEPARATOR:        ,COMMA
#MTYPE:            ,DIL
#INSTRUMENT:       ,NETZSCH DIL 402SU
#PROJECT:          ,123
#DATE/TIME:        ,2025/6/4 16:10:34 (UTC+8)
#CORR. FILE:       ,石墨炉 1400度-1.ngb-cl9
#TEMPCAL:          ,TCALZERO.TMX
#LABORATORY:       ,wust
#OPERATOR:         ,
#REMARK:           ,
#SAMPLE:           ,镁碳
#SAMPLE LENGTH /mm:,25.64
#MATERIAL:         ,镁碳
#MEASMODE:         ,Standard Expansion
#M.RANGE /μm:      ,50000
#CORR. CODE:       ,080
#RANGE:            ,25°C/5.0(K/min)/1403°C
#SEGMENT:          ,S1/2
#SEG. 1:           ,25°C/5.0(K/min)/1403°C
#Tref:             ,30.0°C

##Temp./°C,Time/min,dL/Lo,Force/N,Gas Flow(protective)/(ml/min),m. CTE(1)/(1/K)
  50.00000,  4.64564,2.900019e-004,0.29999,60.00000,1.196674e-005
  58.00000,  6.03260,3.395248e-004,0.29994,60.00000,1.030415e-005
  66.00000,  7.85555,4.276242e-004,0.30001,60.00000,1.047079e-005
  74.00000,  9.24096,4.722563e-004,0.29997,60.00000,9.574395e-006
  82.00000, 11.01891,5.580916e-004,0.30000,60.00000,9.757504e-006
  90.00000, 12.44477,6.097797e-004,0.30001,60.00000,9.313907e-006
  98.00000, 14.21210,6.955338e-004,0.30000,60.00000,9.481766e-006
 106, 15.67433,7.513670e-004,0.30003,60.00000,9.216649e-006
 114, 17.43861,8.406029e-004,0.29999,60.00000,9.402820e-006
 122, 18.96369,9.072470e-004,0.29999,60.00000,9.308503e-006
 130, 20.67438,9.968990e-004,0.30002,60.00000,9.461374e-006
 138, 22.34270,1.067395e-003,0.30002,60.00000,9.412750e-006
 146, 23.93480,1.143400e-003,0.30000,60.00000,9.418680e-006
 154, 25.61957,1.233575e-003,0.30002,60.00000,9.538215e-006
 162, 27.24638,1.314500e-003,0.30001,60.00000,9.573521e-006
 170, 28.82815,1.396461e-003,0.29998,60.00000,9.611624e-006
 178, 30.42776,1.482816e-003,0.29997,60.00000,9.675858e-006
 186, 32.02005,1.568207e-003,0.30001,60.00000,9.727032e-006
 194, 33.62067,1.658470e-003,0.30004,60.00000,9.802636e-006
 202, 35.21780,1.745182e-003,0.30000,60.00000,9.850977e-006
 210, 36.81024,1.831613e-003,0.30001,60.00000,9.893358e-006
 218, 38.41453,1.915161e-003,0.30001,60.00000,9.916602e-006
 226, 40.01636,2.000534e-003,0.29998,60.00000,9.947736e-006
 234, 41.62553,2.088795e-003,0.30001,60.00000,9.990173e-006
 242, 43.22612,2.175394e-003,0.30000,60.00000,1.002183e-005
 250, 44.82930,2.264970e-003,0.30003,60.00000,1.006439e-005
 258, 46.42805,2.350259e-003,0.30002,60.00000,1.008534e-005
 266, 48.00808,2.438647e-003,0.30001,60.00000,1.011794e-005
 274, 49.59772,2.526824e-003,0.30003,60.00000,1.014745e-005
 282, 51.19951,2.613747e-003,0.30001,60.00000,1.017028e-005
 290, 52.80394,2.701429e-003,0.30002,60.00000,1.019467e-005
 298, 54.43003,2.787979e-003,0.30000,60.00000,1.021334e-005
 306, 56.05526,2.873083e-003,0.29999,60.00000,1.022556e-005
 314, 57.67373,2.953565e-003,0.29999,60.00000,1.022096e-005
 322, 59.31498,3.041811e-003,0.30006,60.00000,1.024310e-005
 330, 60.95519,3.127927e-003,0.30001,60.00000,1.025708e-005
 338, 62.58590,3.209879e-003,0.30002,60.00000,1.025654e-005
 346, 64.20066,3.291451e-003,0.30001,60.00000,1.025521e-005
 354, 65.82497,3.374098e-003,0.30001,60.00000,1.025703e-005
 362, 67.44771,3.454886e-003,0.30003,60.00000,1.025304e-005
 370, 69.09015,3.541652e-003,0.30000,60.00000,1.026719e-005
 378, 70.72034,3.625529e-003,0.30003,60.00000,1.027218e-005
 386, 72.35616,3.708624e-003,0.29998,60.00000,1.027473e-005
 394, 73.98751,3.791322e-003,0.29999,60.00000,1.027612e-005
 402, 75.62902,3.876374e-003,0.30003,60.00000,1.028377e-005
 410, 77.28445,3.961791e-003,0.30001,60.00000,1.029209e-005
 418, 78.91774,4.048745e-003,0.30001,60.00000,1.030396e-005
 426, 80.54165,4.130626e-003,0.30001,60.00000,1.030257e-005
 434, 82.16064,4.215839e-003,0.30003,60.00000,1.030944e-005
 442, 83.78819,4.301521e-003,0.30002,60.00000,1.031721e-005
 450, 85.41812,4.387068e-003,0.29991,60.00000,1.032442e-005
 458, 87.05314,4.475709e-003,0.30000,60.00000,1.033852e-005
 466, 88.68769,4.563476e-003,0.29999,60.00000,1.035004e-005
 474, 90.32813,4.648897e-003,0.30003,60.00000,1.035602e-005
 482, 91.97446,4.736914e-003,0.30001,60.00000,1.036742e-005
 490, 93.60875,4.824795e-003,0.30000,60.00000,1.037822e-005
 498, 95.23390,4.915279e-003,0.30002,60.00000,1.039412e-005
 506, 96.85582,5.004719e-003,0.30002,60.00000,1.040738e-005
 514, 98.47990,5.089076e-003,0.30004,60.00000,1.040967e-005
 522,100.097,5.175782e-003,0.30000,60.00000,1.041674e-005
 530,101.734,5.264284e-003,0.29999,60.00000,1.042687e-005
 538,103.351,5.352527e-003,0.30000,60.00000,1.043637e-005
 546,104.982,5.443193e-003,0.30000,60.00000,1.045035e-005
 554,106.621,5.533288e-003,0.30002,60.00000,1.046284e-005
 562,108.252,5.622292e-003,0.29998,60.00000,1.047261e-005
 570,109.874,5.710151e-003,0.30001,60.00000,1.048023e-005
 578,111.485,5.801643e-003,0.29998,60.00000,1.049418e-005
 586,113.102,5.890844e-003,0.29999,60.00000,1.050352e-005
 594,114.717,5.979772e-003,0.29998,60.00000,1.051229e-005
 602,116.341,6.067054e-003,0.30007,60.00000,1.051793e-005
 610,117.966,6.154104e-003,0.30002,60.00000,1.052286e-005
 618,119.6,6.241463e-003,0.29997,60.00000,1.052823e-005
 626,121.248,6.326543e-003,0.29997,60.00000,1.052969e-005
 634,122.862,6.410003e-003,0.29998,60.00000,1.052834e-005
 642,124.492,6.490784e-003,0.30002,60.00000,1.052293e-005
 650,126.097,6.571475e-003,0.30002,60.00000,1.051716e-005
 658,127.701,6.650893e-003,0.29999,60.00000,1.050968e-005
 666,129.342,6.731747e-003,0.30001,60.00000,1.050456e-005
 674,130.987,6.808250e-003,0.30001,60.00000,1.049289e-005
 682,132.667,6.888793e-003,0.30001,60.00000,1.048768e-005
 690,134.314,6.971371e-003,0.30003,60.00000,1.048569e-005
 698,135.933,7.056481e-003,0.30002,60.00000,1.048749e-005
 706,137.551,7.140819e-003,0.30001,60.00000,1.048823e-005
 714,139.118,7.228724e-003,0.30002,60.00000,1.049399e-005
 722,140.727,7.314363e-003,0.30000,60.00000,1.049648e-005
 730,142.319,7.398646e-003,0.29992,60.00000,1.049690e-005
 738,143.897,7.488929e-003,0.30000,60.00000,1.050577e-005
 746,145.48,7.577801e-003,0.30002,60.00000,1.051254e-005
 754,147.052,7.669675e-003,0.29999,60.00000,1.052322e-005
 762,148.637,7.768238e-003,0.29998,60.00000,1.054295e-005
 770,150.241,7.863076e-003,0.29999,60.00000,1.055714e-005
 778,151.814,7.962866e-003,0.30003,60.00000,1.057762e-005
 786,153.387,8.067251e-003,0.30002,60.00000,1.060377e-005
 794,154.963,8.173419e-003,0.30002,60.00000,1.063164e-005
 802,156.54,8.279966e-003,0.30000,60.00000,1.065946e-005
 810,158.129,8.383599e-003,0.29997,60.00000,1.068309e-005
 818,159.729,8.491566e-003,0.30001,60.00000,1.071160e-005
 826,161.325,8.595553e-003,0.30001,60.00000,1.073456e-005
 834,162.939,8.699721e-003,0.30000,60.00000,1.075734e-005
 842,164.521,8.801883e-003,0.30001,60.00000,1.077720e-005
 850,166.096,8.905369e-003,0.30001,60.00000,1.079825e-005
 858,167.668,9.010552e-003,0.30002,60.00000,1.082094e-005
 866,169.255,9.108695e-003,0.30006,60.00000,1.083476e-005
 874,170.838,9.214123e-003,0.29997,60.00000,1.085702e-005
 882,172.442,9.318573e-003,0.30002,60.00000,1.087762e-005
 890,174.054,9.417778e-003,0.29996,60.00000,1.089174e-005
 898,175.662,9.516312e-003,0.30003,60.00000,1.090496e-005
 906,177.245,9.611819e-003,0.29999,60.00000,1.091437e-005
 914,178.831,9.708385e-003,0.29999,60.00000,1.092485e-005
 922,180.419,9.804518e-003,0.30000,60.00000,1.093466e-005
 930,182.006,9.900223e-003,0.30000,60.00000,1.094381e-005
 938,183.588,9.996333e-003,0.29999,60.00000,1.095320e-005
 946,185.193,1.008887e-002,0.29995,60.00000,1.095856e-005
 954,186.804,1.018092e-002,0.30000,60.00000,1.096329e-005
 962,188.413,1.027234e-002,0.30000,60.00000,1.096734e-005
 970,189.998,1.036344e-002,0.29997,60.00000,1.097085e-005
 978,191.59,1.045464e-002,0.29996,60.00000,1.097450e-005
 986,193.168,1.054480e-002,0.30000,60.00000,1.097697e-005
 994,194.732,1.063602e-002,0.30003,60.00000,1.098047e-005
1002,196.346,1.072836e-002,0.30002,60.00000,1.098513e-005
1010,197.959,1.081911e-002,0.29999,60.00000,1.098804e-005
1018,199.58,1.090746e-002,0.29999,60.00000,1.098851e-005
1026,201.151,1.099741e-002,0.30003,60.00000,1.099054e-005
1034,202.744,1.108854e-002,0.30000,60.00000,1.099373e-005
1042,204.322,1.118053e-002,0.30005,60.00000,1.099776e-005
1050,205.88,1.127318e-002,0.29999,60.00000,1.100235e-005
1058,207.486,1.136230e-002,0.30000,60.00000,1.100333e-005
1066,209.119,1.144893e-002,0.30003,60.00000,1.100204e-005
1074,210.725,1.153441e-002,0.30003,60.00000,1.099961e-005
1082,212.317,1.162014e-002,0.29998,60.00000,1.099744e-005
1090,213.89,1.170737e-002,0.30001,60.00000,1.099677e-005
1098,215.465,1.179529e-002,0.30000,60.00000,1.099672e-005
1106,217.034,1.188337e-002,0.29999,60.00000,1.099677e-005
1114,218.639,1.196852e-002,0.30004,60.00000,1.099421e-005
1122,220.253,1.205558e-002,0.30001,60.00000,1.099337e-005
1130,221.862,1.214050e-002,0.29998,60.00000,1.099066e-005
1138,223.447,1.222629e-002,0.30003,60.00000,1.098865e-005
1146,225.038,1.231320e-002,0.30003,60.00000,1.098780e-005
1154,226.613,1.239912e-002,0.29997,60.00000,1.098599e-005
1162,228.21,1.248483e-002,0.30002,60.00000,1.098416e-005
1170,229.81,1.257208e-002,0.30001,60.00000,1.098348e-005
1178,231.449,1.265654e-002,0.30000,60.00000,1.098056e-005
1186,233.058,1.274048e-002,0.30002,60.00000,1.097719e-005
1194,234.634,1.282319e-002,0.30000,60.00000,1.097280e-005
1202,236.215,1.290855e-002,0.30000,60.00000,1.097073e-005
1210,237.803,1.299535e-002,0.29998,60.00000,1.096992e-005
1218,239.327,1.308579e-002,0.29997,60.00000,1.097210e-005
1226,240.942,1.316914e-002,0.30001,60.00000,1.096854e-005
1234,242.451,1.326291e-002,0.30000,60.00000,1.097339e-005
1242,244.264,1.333178e-002,0.30000,60.00000,1.095794e-005
1250,245.81,1.341556e-002,0.29999,60.00000,1.095470e-005
1258,247.22,1.350148e-002,0.30004,60.00000,1.095322e-005
1266,248.87,1.358371e-002,0.30002,60.00000,1.094897e-005
1274,250.438,1.365079e-002,0.30000,60.00000,1.093240e-005
1282,251.927,1.373523e-002,0.29998,60.00000,1.092994e-005
1290,253.805,1.378555e-002,0.29998,60.00000,1.090077e-005
1298,255.075,1.387403e-002,0.30000,60.00000,1.090140e-005
1306,257.146,1.391114e-002,0.30002,60.00000,1.086258e-005
1314,258.346,1.399637e-002,0.29997,60.00000,1.086086e-005
1322,260.093,1.405644e-002,0.30012,60.00000,1.084035e-005
1330,261.602,1.412085e-002,0.30001,60.00000,1.082308e-005
1338,262.992,1.419610e-002,0.29999,60.00000,1.081435e-005
1346,264.982,1.421514e-002,0.30002,60.00000,1.076337e-005
1354,266.235,1.427016e-002,0.29999,60.00000,1.073955e-005
1362,267.998,1.427725e-002,0.30000,60.00000,1.068051e-005
1370,269.666,1.427882e-002,0.30002,60.00000,1.061796e-005
1378,271.043,1.431103e-002,0.29999,60.00000,1.057871e-005
1386,272.771,1.431107e-002,0.30001,60.00000,1.051646e-005
1394,274.259,1.432812e-002,0.29999,60.00000,1.046720e-005
1400,275.495,1.432311e-002,0.29999,60.00000,1.041774e-005