File: 李院长 MgO-C  C9-基 1400 @ S2-1.csv
#EXPORTTYPE:       ,DATA ALL                        ,,,,
#FILE:             ,李院长 MgO-C C9-骨 C9-基 1400.ngb-dl9,,,,
#FORMAT:           ,NETZSCH5                        ,,,,
#FTYPE:            ,ANSI                            ,,,,
#IDENTITY:         ,C9-基                            ,,,,
#DECIMAL:          ,POINT                           ,,,,
#SEPARATOR:        ,COMMA                           ,,,,
#MTYPE:            ,DIL                             ,,,,
#INSTRUMENT:       ,NETZSCH DIL 402SU               ,,,,
#PROJECT:          ,123,,,,
#DATE/TIME:        ,2025/6/4 16:10:34 (UTC+8)       ,,,,
#CORR. FILE:       ,石墨炉 1400度-1.ngb-cl9             ,,,,
#TEMPCAL:          ,TCALZERO.TMX                    ,,,,
#LABORATORY:       ,wust                            ,,,,
#OPERATOR:         ,                                ,,,,
#REMARK:           ,                                ,,,,
#SAMPLE:           ,镁碳                              ,,,,
#SAMPLE LENGTH /mm:,25.08,,,,
#MATERIAL:         ,镁碳                              ,,,,
#MEASMODE:         ,Standard Expansion              ,,,,
#M.RANGE /μm:      ,50000,,,,
#CORR. CODE:       ,80,,,,
#RANGE:            ,25°C/5.0(K/min)/1403°C          ,,,,
#SEGMENT:          ,S1/2                            ,,,,
#SEG. 1:           ,25°C/5.0(K/min)/1403°C          ,,,,
#Tref:             ,30.0°C                          ,,,,
,,,,,
##Temp./°C,Time/min,dL/Lo,Force/N,Gas Flow(protective)/(ml/min),m. CTE(1)/(1/K)
50,4.64564,2.70E-04,0.29996,60,1.10E-05
56,5.64792,2.95E-04,0.29998,60,9.43E-06
62,7.01386,3.46E-04,0.30005,60,9.25E-06
68,8.19788,3.86E-04,0.30001,60,8.85E-06
74,9.24096,4.07E-04,0.30005,60,8.12E-06
80,10.63044,4.62E-04,0.29998,60,8.25E-06
86,11.70419,4.91E-04,0.29998,60,7.87E-06
92,12.90325,5.30E-04,0.29993,60,7.74E-06
98,14.2121,5.79E-04,0.29999,60,7.78E-06
104,15.27729,6.09E-04,0.29996,60,7.55E-06
110,16.58786,6.63E-04,0.29999,60,7.66E-06
116,17.82614,7.06E-04,0.30001,60,7.62E-06
122,18.96369,7.44E-04,0.29995,60,7.54E-06
128,20.2322,7.98E-04,0.29998,60,7.64E-06
134,21.53341,8.42E-04,0.29999,60,7.61E-06
140,22.73694,8.81E-04,0.30002,60,7.56E-06
146,23.9348,9.29E-04,0.29996,60,7.58E-06
152,25.19686,9.85E-04,0.29998,60,7.66E-06
158,26.44616,1.03E-03,0.30002,60,7.69E-06
164,27.641,1.08E-03,0.29998,60,7.67E-06
170,28.82815,1.13E-03,0.30002,60,7.70E-06
176,30.02883,1.18E-03,0.30007,60,7.73E-06
182,31.2232,1.23E-03,0.29999,60,7.75E-06
188,32.41916,1.28E-03,0.29998,60,7.77E-06
194,33.62067,1.33E-03,0.29998,60,7.79E-06
200,34.81877,1.38E-03,0.30006,60,7.80E-06
206,36.01288,1.42E-03,0.29999,60,7.81E-06
212,37.21204,1.47E-03,0.30004,60,7.83E-06
218,38.41453,1.52E-03,0.30009,60,7.84E-06
224,39.61543,1.57E-03,0.29996,60,7.86E-06
230,40.82084,1.62E-03,0.3001,60,7.87E-06
236,42.0266,1.67E-03,0.3,60,7.89E-06
242,43.22612,1.73E-03,0.3,60,7.90E-06
248,44.42737,1.78E-03,0.29997,60,7.92E-06
254,45.63004,1.83E-03,0.30002,60,7.94E-06
260,46.82443,1.88E-03,0.29998,60,7.94E-06
266,48.00808,1.92E-03,0.30004,60,7.94E-06
272,49.19737,1.97E-03,0.29999,60,7.95E-06
278,50.39972,2.02E-03,0.30001,60,7.96E-06
284,51.60002,2.07E-03,0.3,60,7.96E-06
290,52.80394,2.12E-03,0.29997,60,7.98E-06
296,54.02189,2.17E-03,0.29995,60,7.98E-06
302,55.24447,2.22E-03,0.29997,60,7.97E-06
308,56.4604,2.26E-03,0.30003,60,7.96E-06
314,57.67373,2.31E-03,0.29999,60,7.96E-06
320,58.90046,2.36E-03,0.30002,60,7.96E-06
326,60.14243,2.41E-03,0.29997,60,7.97E-06
332,61.35909,2.46E-03,0.29996,60,7.97E-06
338,62.5859,2.50E-03,0.29994,60,7.96E-06
344,63.80178,2.54E-03,0.30001,60,7.94E-06
350,65.00567,2.59E-03,0.3,60,7.93E-06
356,66.23533,2.63E-03,0.30005,60,7.91E-06
362,67.44771,2.67E-03,0.29998,60,7.89E-06
368,68.67916,2.71E-03,0.29999,60,7.88E-06
374,69.90542,2.75E-03,0.29998,60,7.86E-06
380,71.12915,2.80E-03,0.29994,60,7.85E-06
386,72.35616,2.84E-03,0.29997,60,7.84E-06
392,73.58057,2.89E-03,0.29997,60,7.84E-06
398,74.80184,2.93E-03,0.29993,60,7.84E-06
404,76.04634,2.98E-03,0.29995,60,7.83E-06
410,77.28445,3.02E-03,0.30008,60,7.82E-06
416,78.50571,3.06E-03,0.30003,60,7.80E-06
422,79.73679,3.10E-03,0.29996,60,7.79E-06
428,80.9426,3.15E-03,0.30001,60,7.79E-06
434,82.16064,3.20E-03,0.29999,60,7.79E-06
440,83.38331,3.24E-03,0.30001,60,7.78E-06
446,84.60101,3.29E-03,0.30002,60,7.78E-06
452,85.82796,3.33E-03,0.30002,60,7.77E-06
458,87.05314,3.38E-03,0.3,60,7.78E-06
464,88.27678,3.43E-03,0.3,60,7.78E-06
470,89.51008,3.48E-03,0.3,60,7.79E-06
476,90.73731,3.53E-03,0.30001,60,7.80E-06
482,91.97446,3.58E-03,0.3,60,7.80E-06
488,93.19917,3.62E-03,0.3,60,7.80E-06
494,94.42763,3.67E-03,0.29997,60,7.80E-06
500,95.63518,3.72E-03,0.30002,60,7.81E-06
506,96.85582,3.77E-03,0.29999,60,7.81E-06
512,98.07507,3.82E-03,0.29997,60,7.81E-06
518,99.28672,3.86E-03,0.30001,60,7.82E-06
524,100.505,3.91E-03,0.29998,60,7.82E-06
530,101.734,3.96E-03,0.30011,60,7.82E-06
536,102.9475,4.01E-03,0.3,60,7.83E-06
542,104.166,4.06E-03,0.3,60,7.83E-06
548,105.3901,4.11E-03,0.3,60,7.84E-06
554,106.621,4.16E-03,0.29999,60,7.84E-06
560,107.843,4.20E-03,0.29994,60,7.84E-06
566,109.065,4.25E-03,0.29996,60,7.84E-06
572,110.278,4.29E-03,0.29998,60,7.83E-06
578,111.485,4.34E-03,0.30001,60,7.82E-06
584,112.699,4.38E-03,0.30004,60,7.81E-06
590,113.908,4.42E-03,0.3,60,7.80E-06
596,115.123,4.46E-03,0.30003,60,7.80E-06
602,116.341,4.51E-03,0.30005,60,7.79E-06
608,117.558,4.55E-03,0.3,60,7.79E-06
614,118.78,4.60E-03,0.29995,60,7.79E-06
620,120.0143,4.65E-03,0.29998,60,7.79E-06
626,121.248,4.69E-03,0.29997,60,7.79E-06
632,122.457,4.73E-03,0.30006,60,7.78E-06
638,123.68,4.78E-03,0.3,60,7.78E-06
644,124.897,4.83E-03,0.29999,60,7.78E-06
650,126.097,4.87E-03,0.30004,60,7.78E-06
656,127.297,4.92E-03,0.3,60,7.77E-06
662,128.519,4.97E-03,0.3,60,7.78E-06
668,129.7474,5.01E-03,0.30002,60,7.78E-06
674,130.987,5.06E-03,0.3,60,7.78E-06
680,132.244,5.11E-03,0.30001,60,7.78E-06
686,133.502,5.15E-03,0.30001,60,7.77E-06
692,134.718,5.20E-03,0.30004,60,7.77E-06
698,135.933,5.24E-03,0.29996,60,7.77E-06
704,137.154,5.28E-03,0.30001,60,7.76E-06
710,138.3253,5.32E-03,0.30001,60,7.76E-06
716,139.522,5.37E-03,0.29999,60,7.75E-06
722,140.727,5.41E-03,0.29996,60,7.74E-06
728,141.921,5.45E-03,0.30005,60,7.73E-06
734,143.107,5.49E-03,0.30002,60,7.73E-06
740,144.291,5.53E-03,0.29994,60,7.72E-06
746,145.48,5.58E-03,0.3,60,7.72E-06
752,146.664,5.62E-03,0.29998,60,7.72E-06
758,147.833,5.67E-03,0.29998,60,7.73E-06
764,149.0436,5.73E-03,0.3,60,7.73E-06
770,150.241,5.78E-03,0.30003,60,7.74E-06
776,151.423,5.84E-03,0.30003,60,7.75E-06
782,152.598,5.90E-03,0.30002,60,7.77E-06
788,153.782,5.96E-03,0.30004,60,7.79E-06
794,154.963,6.02E-03,0.30005,60,7.82E-06
800,156.148,6.08E-03,0.3,60,7.84E-06
806,157.331,6.15E-03,0.29996,60,7.86E-06
812,158.526,6.22E-03,0.30001,60,7.89E-06
818,159.729,6.29E-03,0.30009,60,7.91E-06
824,160.931,6.35E-03,0.29998,60,7.94E-06
830,162.127,6.42E-03,0.30003,60,7.96E-06
836,163.343,6.48E-03,0.30012,60,7.97E-06
842,164.521,6.54E-03,0.30001,60,7.99E-06
848,165.701,6.60E-03,0.30001,60,8.00E-06
854,166.883,6.67E-03,0.30003,60,8.03E-06
860,168.064,6.73E-03,0.30001,60,8.05E-06
866,169.255,6.79E-03,0.30002,60,8.07E-06
872,170.443,6.86E-03,0.29998,60,8.09E-06
878,171.636,6.93E-03,0.3,60,8.11E-06
884,172.847,6.99E-03,0.29996,60,8.13E-06
890,174.054,7.05E-03,0.30002,60,8.14E-06
896,175.258,7.11E-03,0.30001,60,8.15E-06
902,176.457,7.16E-03,0.3,60,8.16E-06
908,177.6383,7.22E-03,0.29996,60,8.17E-06
914,178.831,7.29E-03,0.29996,60,8.19E-06
920,180.023,7.35E-03,0.30004,60,8.20E-06
926,181.211,7.41E-03,0.30001,60,8.22E-06
932,182.403,7.47E-03,0.30003,60,8.22E-06
938,183.588,7.53E-03,0.29995,60,8.24E-06
944,184.79,7.59E-03,0.29996,60,8.25E-06
950,185.999,7.66E-03,0.3,60,8.27E-06
956,187.208,7.72E-03,0.30002,60,8.28E-06
962,188.413,7.78E-03,0.30001,60,8.30E-06
968,189.603,7.85E-03,0.29998,60,8.32E-06
974,190.7939,7.91E-03,0.30002,60,8.33E-06
980,191.985,7.98E-03,0.29999,60,8.35E-06
986,193.168,8.04E-03,0.3,60,8.36E-06
992,194.337,8.11E-03,0.3,60,8.38E-06
998,195.539,8.18E-03,0.29996,60,8.40E-06
1004,196.75,8.24E-03,0.29999,60,8.41E-06
1010,197.959,8.30E-03,0.3,60,8.42E-06
1016,199.181,8.37E-03,0.29998,60,8.44E-06
1022,200.367,8.43E-03,0.3,60,8.45E-06
1028,201.547,8.49E-03,0.30001,60,8.46E-06
1034,202.744,8.56E-03,0.29993,60,8.47E-06
1040,203.929,8.62E-03,0.29999,60,8.49E-06
1046,205.098,8.68E-03,0.29998,60,8.50E-06
1052,206.277,8.75E-03,0.30001,60,8.51E-06
1058,207.4864,8.81E-03,0.3,60,8.52E-06
1064,208.714,8.88E-03,0.30003,60,8.53E-06
1070,209.919,8.94E-03,0.30002,60,8.55E-06
1076,211.129,9.01E-03,0.30002,60,8.56E-06
1082,212.317,9.07E-03,0.3,60,8.57E-06
1088,213.5,9.13E-03,0.29999,60,8.58E-06
1094,214.676,9.20E-03,0.29999,60,8.60E-06
1100,215.859,9.26E-03,0.29998,60,8.60E-06
1106,217.034,9.31E-03,0.30002,60,8.61E-06
1112,218.237,9.37E-03,0.29997,60,8.62E-06
1118,219.444,9.43E-03,0.30003,60,8.62E-06
1124,220.656,9.49E-03,0.29996,60,8.63E-06
1130,221.862,9.54E-03,0.29999,60,8.63E-06
1136,223.053,9.60E-03,0.30002,60,8.63E-06
1142,224.243,9.65E-03,0.29997,60,8.63E-06
1148,225.432,9.70E-03,0.3,60,8.63E-06
1154,226.613,9.75E-03,0.30007,60,8.63E-06
1160,227.811,9.80E-03,0.29998,60,8.63E-06
1166,228.998,9.85E-03,0.30004,60,8.63E-06
1172,230.231,9.90E-03,0.30002,60,8.62E-06
1178,231.449,9.94E-03,0.30002,60,8.62E-06
1184,232.6582,9.99E-03,0.3,60,8.61E-06
1190,233.845,1.00E-02,0.3,60,8.61E-06
1196,235.029,1.01E-02,0.30001,60,8.60E-06
1202,236.215,1.01E-02,0.29999,60,8.60E-06
1208,237.405,1.02E-02,0.30002,60,8.59E-06
1214,238.559,1.02E-02,0.30001,60,8.59E-06
1220,239.764,1.03E-02,0.29999,60,8.59E-06
1226,240.942,1.03E-02,0.30001,60,8.59E-06
1232,242.007,1.04E-02,0.29998,60,8.59E-06
1238,243.439,1.04E-02,0.3,60,8.58E-06
1244,244.6382,1.05E-02,0.30002,60,8.57E-06
1250,245.81,1.05E-02,0.3,60,8.56E-06
1256,246.911,1.05E-02,0.30003,60,8.56E-06
1262,247.892,1.06E-02,0.3,60,8.56E-06
1268,249.396,1.06E-02,0.30004,60,8.54E-06
1274,250.438,1.07E-02,0.3,60,8.53E-06
1280,251.459,1.07E-02,0.29999,60,8.53E-06
1286,253.039,1.07E-02,0.29998,60,8.51E-06
1292,254.102,1.08E-02,0.3,60,8.49E-06
1298,255.075,1.08E-02,0.30001,60,8.49E-06
1304,256.7,1.08E-02,0.3,60,8.45E-06
1310,257.772,1.08E-02,0.29999,60,8.43E-06
1316,258.672,1.09E-02,0.3,60,8.42E-06
1322,260.0928,1.09E-02,0.3,60,8.38E-06
1328,261.314,1.09E-02,0.30004,60,8.37E-06
1334,262.216,1.10E-02,0.29999,60,8.37E-06
1340,263.475,1.10E-02,0.30001,60,8.36E-06
1346,264.982,1.10E-02,0.29999,60,8.34E-06
1352,265.917,1.11E-02,0.3,60,8.34E-06
1358,267.018,1.11E-02,0.30001,60,8.34E-06
1364,268.503,1.12E-02,0.29999,60,8.32E-06
1370,269.666,1.12E-02,0.3,60,8.31E-06
1376,270.654,1.12E-02,0.3,60,8.31E-06
1382,271.917,1.13E-02,0.30001,60,8.31E-06
1388,273.155,1.13E-02,0.30001,60,8.30E-06
1394,274.259,1.14E-02,0.30002,60,8.30E-06
1400,275.495,1.14E-02,0.29999,60,8.29E-06