File: 李院长 MgO-C C15-基 1400 @ S2-1.csv
#EXPORTTYPE:       ,DATA ALL
#FILE:             ,李院长 MgO-C C15-骨 C15-基 1400.ngb-dl9
#FORMAT:           ,NETZSCH5
#FTYPE:            ,ANSI
#IDENTITY:         ,C15-基
#DECIMAL:          ,POINT
#SEPARATOR:        ,COMMA
#MTYPE:            ,DIL
#INSTRUMENT:       ,NETZSCH DIL 402SU
#PROJECT:          ,123
#DATE/TIME:        ,2025/6/5 17:20:27 (UTC+8)
#CORR. FILE:       ,石墨炉 1400度-1.ngb-cl9
#TEMPCAL:          ,TCALZERO.TMX
#LABORATORY:       ,wust
#OPERATOR:         ,
#REMARK:           ,
#SAMPLE:           ,镁碳
#SAMPLE LENGTH /mm:,25.68
#MATERIAL:         ,镁碳
#MEASMODE:         ,Standard Expansion
#M.RANGE /μm:      ,50000
#CORR. CODE:       ,080
#RANGE:            ,25°C/5.0(K/min)/1403°C
#SEGMENT:          ,S1/2
#SEG. 1:           ,25°C/5.0(K/min)/1403°C
#Tref:             ,30.0°C

##Temp./°C,Time/min,dL/Lo,Force/N,Gas Flow(protective)/(ml/min),m. CTE(1)/(1/K)
  50.00000,  4.67629,2.635410e-004,0.30000,60.00000,1.086820e-005
  58.00000,  6.07617,3.018394e-004,0.30002,60.00000,9.121203e-006
  66.00000,  7.84358,3.751657e-004,0.30001,60.00000,9.137666e-006
  74.00000,  9.27255,4.144312e-004,0.30001,60.00000,8.363264e-006
  82.00000, 11.02082,4.908998e-004,0.29998,60.00000,8.550865e-006
  90.00000, 12.50203,5.383868e-004,0.30002,60.00000,8.199890e-006
  98.00000, 14.21727,6.098294e-004,0.30002,60.00000,8.287979e-006
 106, 15.73972,6.654167e-004,0.29999,60.00000,8.145279e-006
 114, 17.43731,7.362194e-004,0.30001,60.00000,8.213704e-006
 122, 18.95404,7.909697e-004,0.29999,60.00000,8.093744e-006
 130, 20.65146,8.598619e-004,0.30000,60.00000,8.136035e-006
 138, 22.17657,9.146612e-004,0.29999,60.00000,8.040157e-006
 146, 23.87235,9.818007e-004,0.29999,60.00000,8.064427e-006
 154, 25.54219,1.044975e-003,0.30004,60.00000,8.053616e-006
 162, 27.12273,1.103926e-003,0.30000,60.00000,8.012192e-006
 170, 28.78940,1.166905e-003,0.30000,60.00000,8.004108e-006
 178, 30.42635,1.226880e-003,0.30003,60.00000,7.976835e-006
 186, 32.02602,1.290211e-003,0.29999,60.00000,7.973774e-006
 194, 33.65542,1.355963e-003,0.30001,60.00000,7.985797e-006
 202, 35.27544,1.419369e-003,0.29998,60.00000,7.983030e-006
 210, 36.87689,1.481866e-003,0.30003,60.00000,7.975386e-006
 218, 38.46737,1.547906e-003,0.30001,60.00000,7.987253e-006
 226, 40.04442,1.613146e-003,0.30000,60.00000,7.993990e-006
 234, 41.63318,1.675681e-003,0.30001,60.00000,7.987253e-006
 242, 43.21585,1.739662e-003,0.29998,60.00000,7.987413e-006
 250, 44.79244,1.806733e-003,0.30002,60.00000,8.001925e-006
 258, 46.39084,1.873297e-003,0.29998,60.00000,8.013072e-006
 266, 48.00308,1.937397e-003,0.30000,60.00000,8.013124e-006
 274, 49.63219,2.003493e-003,0.30002,60.00000,8.021229e-006
 282, 51.24548,2.067864e-003,0.30001,60.00000,8.022151e-006
 290, 52.86068,2.134718e-003,0.29999,60.00000,8.032288e-006
 298, 54.52588,2.199963e-003,0.30000,60.00000,8.036063e-006
 306, 56.10641,2.261485e-003,0.30000,60.00000,8.025931e-006
 314, 57.71342,2.324466e-003,0.30000,60.00000,8.021705e-006
 322, 59.32320,2.386784e-003,0.30000,60.00000,8.015403e-006
 330, 60.93677,2.452257e-003,0.30005,60.00000,8.019708e-006
 338, 62.56355,2.516732e-003,0.29998,60.00000,8.020832e-006
 346, 64.20080,2.580470e-003,0.30005,60.00000,8.019607e-006
 354, 65.83269,2.642219e-003,0.30000,60.00000,8.012014e-006
 362, 67.48135,2.708247e-003,0.29999,60.00000,8.017869e-006
 370, 69.11953,2.774295e-003,0.30000,60.00000,8.023503e-006
 378, 70.76426,2.839643e-003,0.30003,60.00000,8.026831e-006
 386, 72.37589,2.902680e-003,0.30000,60.00000,8.023485e-006
 394, 73.99975,2.964767e-003,0.29999,60.00000,8.017709e-006
 402, 75.61835,3.027742e-003,0.30004,60.00000,8.014598e-006
 410, 77.24561,3.090475e-003,0.29999,60.00000,8.010923e-006
 418, 78.88343,3.151491e-003,0.29999,60.00000,8.003035e-006
 426, 80.50106,3.211824e-003,0.30002,60.00000,7.993612e-006
 434, 82.14865,3.276178e-003,0.29999,60.00000,7.994629e-006
 442, 83.79288,3.340207e-003,0.29998,60.00000,7.994863e-006
 450, 85.44073,3.403315e-003,0.29999,60.00000,7.992789e-006
 458, 87.07316,3.462677e-003,0.30000,60.00000,7.982235e-006
 466, 88.69072,3.525309e-003,0.30001,60.00000,7.979359e-006
 474, 90.31376,3.589363e-003,0.29999,60.00000,7.979795e-006
 482, 91.93573,3.651497e-003,0.29999,60.00000,7.976007e-006
 490, 93.55645,3.711146e-003,0.29996,60.00000,7.967049e-006
 498, 95.19119,3.771953e-003,0.30001,60.00000,7.960762e-006
 506, 96.82546,3.833045e-003,0.30002,60.00000,7.955313e-006
 514, 98.46782,3.898323e-003,0.29999,60.00000,7.958721e-006
 522,100.111,3.962595e-003,0.29996,60.00000,7.959959e-006
 530,101.754,4.022114e-003,0.30000,60.00000,7.951674e-006
 538,103.364,4.082924e-003,0.29999,60.00000,7.946036e-006
 546,104.986,4.145209e-003,0.30007,60.00000,7.943578e-006
 554,106.609,4.205097e-003,0.29998,60.00000,7.936601e-006
 562,108.221,4.268019e-003,0.30004,60.00000,7.935518e-006
 570,109.85,4.327915e-003,0.29998,60.00000,7.928852e-006
 578,111.482,4.390578e-003,0.30001,60.00000,7.927524e-006
 586,113.122,4.453581e-003,0.30001,60.00000,7.926751e-006
 594,114.753,4.516734e-003,0.30003,60.00000,7.926266e-006
 602,116.371,4.579329e-003,0.30001,60.00000,7.924879e-006
 610,117.972,4.642308e-003,0.30001,60.00000,7.924121e-006
 618,119.596,4.704359e-003,0.30002,60.00000,7.921905e-006
 626,121.217,4.768813e-003,0.30000,60.00000,7.923692e-006
 634,122.844,4.832815e-003,0.30000,60.00000,7.924682e-006
 642,124.465,4.899360e-003,0.30005,60.00000,7.929796e-006
 650,126.09,4.968491e-003,0.30000,60.00000,7.939011e-006
 658,127.731,5.035200e-003,0.30002,60.00000,7.944082e-006
 666,129.4,5.105889e-003,0.29998,60.00000,7.955291e-006
 674,131.04,5.172747e-003,0.30000,60.00000,7.960299e-006
 682,132.682,5.240837e-003,0.30000,60.00000,7.967055e-006
 690,134.297,5.306834e-003,0.30000,60.00000,7.970445e-006
 698,135.832,5.373647e-003,0.29999,60.00000,7.974958e-006
 706,137.504,5.441075e-003,0.30003,60.00000,7.980466e-006
 714,139.078,5.505447e-003,0.30001,60.00000,7.981164e-006
 722,140.697,5.574815e-003,0.30002,60.00000,7.989192e-006
 730,142.305,5.638590e-003,0.30004,60.00000,7.988935e-006
 738,143.89,5.705202e-003,0.30000,60.00000,7.992802e-006
 746,145.469,5.773102e-003,0.30001,60.00000,7.998334e-006
 754,147.056,5.841723e-003,0.30002,60.00000,8.004733e-006
 762,148.631,5.911947e-003,0.29998,60.00000,8.013179e-006
 770,150.217,5.985318e-003,0.30000,60.00000,8.025695e-006
 778,151.812,6.060669e-003,0.30001,60.00000,8.040584e-006
 786,153.401,6.140139e-003,0.30001,60.00000,8.060629e-006
 794,154.999,6.219667e-003,0.29999,60.00000,8.080250e-006
 802,156.586,6.298866e-003,0.30003,60.00000,8.099121e-006
 810,158.164,6.377965e-003,0.30003,60.00000,8.117506e-006
 818,159.75,6.456531e-003,0.30001,60.00000,8.134772e-006
 826,161.334,6.537296e-003,0.30001,60.00000,8.154523e-006
 834,162.917,6.619138e-003,0.30001,60.00000,8.175167e-006
 842,164.504,6.702551e-003,0.30002,60.00000,8.197359e-006
 850,166.11,6.786407e-003,0.30000,60.00000,8.219610e-006
 858,167.722,6.871857e-003,0.30002,60.00000,8.243430e-006
 866,169.316,6.948313e-003,0.29998,60.00000,8.255950e-006
 874,170.886,7.030256e-003,0.30001,60.00000,8.274805e-006
 882,172.471,7.116188e-003,0.30000,60.00000,8.297979e-006
 890,174.06,7.200642e-003,0.29999,60.00000,8.318960e-006
 898,175.637,7.283211e-003,0.30001,60.00000,8.337444e-006
 906,177.239,7.366382e-003,0.30000,60.00000,8.356228e-006
 914,178.845,7.449193e-003,0.30000,60.00000,8.374324e-006
 922,180.465,7.531035e-003,0.30000,60.00000,8.390923e-006
 930,182.05,7.612821e-003,0.30000,60.00000,8.407259e-006
 938,183.625,7.695512e-003,0.29999,60.00000,8.424184e-006
 946,185.2,7.779034e-003,0.30000,60.00000,8.441793e-006
 954,186.804,7.860191e-003,0.30001,60.00000,8.456589e-006
 962,188.363,7.943383e-003,0.30000,60.00000,8.473235e-006
 970,189.962,8.027845e-003,0.29999,60.00000,8.490980e-006
 978,191.567,8.109593e-003,0.30001,60.00000,8.505572e-006
 986,193.19,8.188049e-003,0.30002,60.00000,8.516429e-006
 994,194.755,8.266678e-003,0.30000,60.00000,8.527372e-006
1002,196.335,8.344542e-003,0.30000,60.00000,8.537268e-006
1010,197.922,8.420523e-003,0.30001,60.00000,8.545123e-006
1018,199.487,8.495971e-003,0.29999,60.00000,8.552295e-006
1026,201.097,8.571883e-003,0.30004,60.00000,8.559830e-006
1034,202.722,8.648366e-003,0.30001,60.00000,8.567789e-006
1042,204.325,8.724337e-003,0.30001,60.00000,8.575108e-006
1050,205.919,8.797604e-003,0.30000,60.00000,8.579700e-006
1058,207.493,8.876156e-003,0.29998,60.00000,8.589345e-006
1066,209.08,8.952286e-003,0.30000,60.00000,8.596509e-006
1074,210.658,9.027529e-003,0.30002,60.00000,8.602666e-006
1082,212.265,9.101638e-003,0.29999,60.00000,8.607726e-006
1090,213.872,9.175639e-003,0.29999,60.00000,8.612569e-006
1098,215.482,9.250035e-003,0.29999,60.00000,8.617728e-006
1106,217.083,9.321835e-003,0.30003,60.00000,8.620390e-006
1114,218.666,9.393918e-003,0.30001,60.00000,8.623240e-006
1122,220.253,9.466756e-003,0.30002,60.00000,8.626790e-006
1130,221.82,9.539588e-003,0.30001,60.00000,8.630254e-006
1138,223.42,9.613963e-003,0.30003,60.00000,8.635041e-006
1146,225.02,9.688053e-003,0.30002,60.00000,8.639574e-006
1154,226.632,9.764428e-003,0.29997,60.00000,8.645996e-006
1162,228.234,9.838713e-003,0.30002,60.00000,8.650548e-006
1170,229.818,9.912888e-003,0.30000,60.00000,8.654899e-006
1178,231.411,9.985683e-003,0.30000,60.00000,8.657982e-006
1186,232.979,1.006176e-002,0.29998,60.00000,8.663868e-006
1194,234.59,1.013788e-002,0.30000,60.00000,8.669757e-006
1202,236.187,1.021242e-002,0.30001,60.00000,8.674181e-006
1210,237.769,1.029047e-002,0.30001,60.00000,8.681466e-006
1218,239.389,1.036374e-002,0.30001,60.00000,8.684684e-006
1226,240.991,1.044469e-002,0.30001,60.00000,8.694302e-006
1234,242.465,1.052846e-002,0.30002,60.00000,8.706021e-006
1242,244.116,1.059826e-002,0.29999,60.00000,8.706269e-006
1250,245.597,1.068731e-002,0.30000,60.00000,8.722039e-006
1258,247.395,1.075466e-002,0.30002,60.00000,8.720274e-006
1266,248.73,1.085214e-002,0.30001,60.00000,8.742463e-006
1274,250.689,1.091323e-002,0.30000,60.00000,8.735664e-006
1282,251.97,1.101110e-002,0.30000,60.00000,8.757672e-006
1290,253.893,1.107983e-002,0.30001,60.00000,8.757002e-006
1298,255.08,1.118147e-002,0.29999,60.00000,8.781520e-006
1306,257.073,1.124941e-002,0.30000,60.00000,8.780163e-006
1314,258.27,1.134937e-002,0.29998,60.00000,8.802869e-006
1322,260.215,1.142463e-002,0.30000,60.00000,8.806829e-006
1330,261.543,1.151670e-002,0.29998,60.00000,8.823253e-006
1338,263.225,1.160768e-002,0.29998,60.00000,8.838917e-006
1346,265.164,1.166063e-002,0.30001,60.00000,8.825711e-006
1354,266.025,1.178126e-002,0.30000,60.00000,8.862961e-006
1362,267.678,1.185892e-002,0.30002,60.00000,8.868354e-006
1370,269.538,1.191455e-002,0.29994,60.00000,8.856888e-006
1378,271.214,1.197170e-002,0.30002,60.00000,8.846756e-006
1386,272.747,1.203492e-002,0.30001,60.00000,8.841125e-006
1394,274.416,1.207123e-002,0.29998,60.00000,8.815920e-006
1400,275.589,1.209098e-002,0.29996,60.00000,8.791697e-006