File: 李院长 MgO-C C9-基 1400-200 @ S2-2.csv
#EXPORTTYPE:       ,DATA ALL
#FILE:             ,李院长 MgO-C C9-骨 C9-基 1400.ngb-dl9
#FORMAT:           ,NETZSCH5
#FTYPE:            ,ANSI
#IDENTITY:         ,C9-基
#DECIMAL:          ,POINT
#SEPARATOR:        ,COMMA
#MTYPE:            ,DIL
#INSTRUMENT:       ,NETZSCH DIL 402SU
#PROJECT:          ,123
#DATE/TIME:        ,2025/6/4 16:10:34 (UTC+8)
#CORR. FILE:       ,石墨炉 1400度-1.ngb-cl9
#TEMPCAL:          ,TCALZERO.TMX
#LABORATORY:       ,wust
#OPERATOR:         ,
#REMARK:           ,
#SAMPLE:           ,镁碳
#SAMPLE LENGTH /mm:,25.08
#MATERIAL:         ,镁碳
#MEASMODE:         ,Standard Expansion
#M.RANGE /μm:      ,50000
#CORR. CODE:       ,080
#RANGE:            ,1403°C/5.0(K/min)/200°C
#SEGMENT:          ,S2/2
#SEG. 2:           ,1403°C/5.0(K/min)/200°C
#Tref:             ,210.0°C

##Temp./°C,Time/min,dL/Lo,Force/N,Gas Flow(protective)/(ml/min),m. CTE(2)/(1/K)
 200.937,516.183,-9.538153e-004,0.30000,60.00000,4.507592e-006
 208.937,514.608,-9.183619e-004,0.29998,60.00000,4.653334e-006
 216.937,513.057,-8.797851e-004,0.30003,60.00000,4.784486e-006
 224.937,511.478,-8.403387e-004,0.30006,60.00000,4.862781e-006
 232.937,509.9,-7.994239e-004,0.30001,60.00000,4.949377e-006
 240.937,508.332,-7.565784e-004,0.30003,60.00000,5.054611e-006
 248.937,506.756,-7.158081e-004,0.29999,60.00000,5.063482e-006
 256.937,505.176,-6.724741e-004,0.30001,60.00000,5.123642e-006
 264.937,503.598,-6.302948e-004,0.29996,60.00000,5.145364e-006
 272.937,502.02,-5.872783e-004,0.30001,60.00000,5.174610e-006
 280.937,500.441,-5.449583e-004,0.29999,60.00000,5.187881e-006
 288.937,498.869,-4.978864e-004,0.29996,60.00000,5.258482e-006
 296.937,497.306,-4.518106e-004,0.29996,60.00000,5.304405e-006
 304.937,495.745,-4.059545e-004,0.30003,60.00000,5.340448e-006
 312.937,494.184,-3.597467e-004,0.30002,60.00000,5.374186e-006
 320.937,492.62,-3.145512e-004,0.30000,60.00000,5.394052e-006
 328.937,491.05,-2.711249e-004,0.30007,60.00000,5.396445e-006
 336.937,489.485,-2.197416e-004,0.30001,60.00000,5.461133e-006
 344.937,487.903,-1.705790e-004,0.30001,60.00000,5.501651e-006
 352.937,486.334,-1.219713e-004,0.30002,60.00000,5.533838e-006
 360.937,484.741,-7.253038e-005,0.29999,60.00000,5.568015e-006
 368.937,483.175,-2.213069e-005,0.30003,60.00000,5.605007e-006
 376.937,481.618, 2.869458e-005,0.29998,60.00000,5.640878e-006
 384.937,480.057, 8.082204e-005,0.30008,60.00000,5.680948e-006
 392.937,478.508, 1.345601e-004,0.29998,60.00000,5.726093e-006
 400.937,476.936, 1.859466e-004,0.30000,60.00000,5.755453e-006
 408.937,475.37, 2.377747e-004,0.30001,60.00000,5.784310e-006
 416.937,473.798, 2.912100e-004,0.30000,60.00000,5.818874e-006
 424.937,472.215, 3.386456e-004,0.29995,60.00000,5.823079e-006
 432.937,470.643, 3.922642e-004,0.30000,60.00000,5.854627e-006
 440.937,469.054, 4.464562e-004,0.30002,60.00000,5.886555e-006
 448.937,467.488, 5.024728e-004,0.29997,60.00000,5.923927e-006
 456.937,465.922, 5.549883e-004,0.29999,60.00000,5.944672e-006
 464.937,464.364, 6.069950e-004,0.30000,60.00000,5.962083e-006
 472.937,462.79, 6.637285e-004,0.30002,60.00000,5.996493e-006
 480.937,461.218, 7.234682e-004,0.29997,60.00000,6.039923e-006
 488.937,459.638, 7.798879e-004,0.29998,60.00000,6.068864e-006
 496.937,458.051, 8.357206e-004,0.29998,60.00000,6.094261e-006
 504.937,456.463, 8.925910e-004,0.30000,60.00000,6.121775e-006
 512.937,454.865, 9.509053e-004,0.30002,60.00000,6.152676e-006
 520.937,453.276, 1.011830e-003,0.30002,60.00000,6.190272e-006
 528.937,451.706, 1.068197e-003,0.30004,60.00000,6.211713e-006
 536.937,450.123, 1.127744e-003,0.29999,60.00000,6.241961e-006
 544.937,448.539, 1.189325e-003,0.29998,60.00000,6.276717e-006
 552.937,446.941, 1.255118e-003,0.30000,60.00000,6.322106e-006
 560.937,445.342, 1.313805e-003,0.30000,60.00000,6.345246e-006
 568.937,443.738, 1.373421e-003,0.30002,60.00000,6.369839e-006
 576.937,442.129, 1.436322e-003,0.30001,60.00000,6.402455e-006
 584.937,440.505, 1.502627e-003,0.30001,60.00000,6.442636e-006
 592.937,438.9, 1.568919e-003,0.30002,60.00000,6.481091e-006
 600.937,437.309, 1.629382e-003,0.29999,60.00000,6.503163e-006
 608.937,435.706, 1.690405e-003,0.29999,60.00000,6.525766e-006
 616.937,434.101, 1.755813e-003,0.29999,60.00000,6.558179e-006
 624.937,432.468, 1.825716e-003,0.30000,60.00000,6.600304e-006
 632.937,430.852, 1.892306e-003,0.29997,60.00000,6.632829e-006
 640.937,429.244, 1.958930e-003,0.30001,60.00000,6.664298e-006
 648.937,427.612, 2.027352e-003,0.29997,60.00000,6.698710e-006
 656.937,426.014, 2.099485e-003,0.30000,60.00000,6.740175e-006
 664.937,424.421, 2.170019e-003,0.30000,60.00000,6.776743e-006
 672.937,422.845, 2.238397e-003,0.29999,60.00000,6.807341e-006
 680.937,421.241, 2.310260e-003,0.29998,60.00000,6.844307e-006
 688.937,419.63, 2.384897e-003,0.29998,60.00000,6.885809e-006
 696.937,418.014, 2.458142e-003,0.30001,60.00000,6.923071e-006
 704.937,416.418, 2.529450e-003,0.29999,60.00000,6.955187e-006
 712.937,414.792, 2.604081e-003,0.30002,60.00000,6.993049e-006
 720.937,413.196, 2.677571e-003,0.29997,60.00000,7.027328e-006
 728.937,411.608, 2.753153e-003,0.30001,60.00000,7.064653e-006
 736.937,410.011, 2.827588e-003,0.30000,60.00000,7.098601e-006
 744.937,408.408, 2.902628e-003,0.30002,60.00000,7.132780e-006
 752.937,406.809, 2.978022e-003,0.30000,60.00000,7.166536e-006
 760.937,405.186, 3.056577e-003,0.30001,60.00000,7.205060e-006
 768.937,403.566, 3.135899e-003,0.29998,60.00000,7.243857e-006
 776.937,401.952, 3.214946e-003,0.30002,60.00000,7.281086e-006
 784.937,400.355, 3.293285e-003,0.30001,60.00000,7.316009e-006
 792.937,398.76, 3.371919e-003,0.29999,60.00000,7.350536e-006
 800.937,397.152, 3.451992e-003,0.29997,60.00000,7.386525e-006
 808.937,395.539, 3.525598e-003,0.29999,60.00000,7.410689e-006
 816.937,393.933, 3.603232e-003,0.29999,60.00000,7.440925e-006
 824.937,392.321, 3.685699e-003,0.30001,60.00000,7.478236e-006
 832.937,390.705, 3.767062e-003,0.30001,60.00000,7.512844e-006
 840.937,389.087, 3.847555e-003,0.29998,60.00000,7.545171e-006
 848.937,387.489, 3.929312e-003,0.30000,60.00000,7.578642e-006
 856.937,385.906, 4.008663e-003,0.29999,60.00000,7.607581e-006
 864.937,384.285, 4.086270e-003,0.29998,60.00000,7.633185e-006
 872.937,382.67, 4.168844e-003,0.30000,60.00000,7.665601e-006
 880.937,381.055, 4.253313e-003,0.30001,60.00000,7.700072e-006
 888.937,379.437, 4.337274e-003,0.29999,60.00000,7.733019e-006
 896.937,377.83, 4.422289e-003,0.30000,60.00000,7.766743e-006
 904.937,376.253, 4.511819e-003,0.29997,60.00000,7.806166e-006
 912.937,374.668, 4.598379e-003,0.29999,60.00000,7.840427e-006
 920.937,373.033, 4.682302e-003,0.30000,60.00000,7.870261e-006
 928.937,371.39, 4.772371e-003,0.30002,60.00000,7.908032e-006
 936.937,369.815, 4.862017e-003,0.30002,60.00000,7.944264e-006
 944.937,368.194, 4.954656e-003,0.30002,60.00000,7.983850e-006
 952.937,366.583, 5.050788e-003,0.29998,60.00000,8.027252e-006
 960.937,365.009, 5.142338e-003,0.29998,60.00000,8.063632e-006
 968.937,363.416, 5.234572e-003,0.29999,60.00000,8.100182e-006
 976.937,361.81, 5.326646e-003,0.29998,60.00000,8.135787e-006
 984.937,360.181, 5.419940e-003,0.30000,60.00000,8.172153e-006
 992.937,358.562, 5.519641e-003,0.29998,60.00000,8.215982e-006
1000.94,356.941, 5.617510e-003,0.30001,60.00000,8.256616e-006
1008.94,355.324, 5.713236e-003,0.29998,60.00000,8.293771e-006
1016.94,353.74, 5.810700e-003,0.29999,60.00000,8.332312e-006
1024.94,352.155, 5.907036e-003,0.29999,60.00000,8.368747e-006
1032.94,350.551, 6.002035e-003,0.29999,60.00000,8.402859e-006
1040.94,348.912, 6.099045e-003,0.29996,60.00000,8.438699e-006
1048.94,347.298, 6.195791e-003,0.29996,60.00000,8.473626e-006
1056.94,345.681, 6.297872e-003,0.30001,60.00000,8.514029e-006
1064.94,344.065, 6.399517e-003,0.29995,60.00000,8.553288e-006
1072.94,342.472, 6.498095e-003,0.30000,60.00000,8.588189e-006
1080.94,340.889, 6.599229e-003,0.29999,60.00000,8.625411e-006
1088.94,339.279, 6.697592e-003,0.30000,60.00000,8.658815e-006
1096.94,337.677, 6.797156e-003,0.29997,60.00000,8.692943e-006
1104.94,336.052, 6.894599e-003,0.29998,60.00000,8.724129e-006
1112.94,334.422, 6.994502e-003,0.30000,60.00000,8.757530e-006
1120.94,332.814, 7.099077e-003,0.30001,60.00000,8.795401e-006
1128.94,331.248, 7.202021e-003,0.29998,60.00000,8.830786e-006
1136.94,329.651, 7.305287e-003,0.29999,60.00000,8.865994e-006
1144.94,328.041, 7.404010e-003,0.30000,60.00000,8.895776e-006
1152.94,326.383, 7.506489e-003,0.29998,60.00000,8.928984e-006
1160.94,324.724, 7.608305e-003,0.30001,60.00000,8.960921e-006
1168.94,323.092, 7.713828e-003,0.30002,60.00000,8.996176e-006
1176.94,321.409, 7.820950e-003,0.30003,60.00000,9.032635e-006
1184.94,320.1, 7.935021e-003,0.30001,60.00000,9.075246e-006
1192.94,318.284, 8.033120e-003,0.30003,60.00000,9.101366e-006
1200.94,316.587, 8.136848e-003,0.30000,60.00000,9.132585e-006
1208.94,315.162, 8.254708e-003,0.29996,60.00000,9.177337e-006
1216.94,313.323, 8.346335e-003,0.30003,60.00000,9.195628e-006
1224.94,311.823, 8.469934e-003,0.30000,60.00000,9.244929e-006
1232.94,310.467, 8.574820e-003,0.29999,60.00000,9.274856e-006
1240.94,308.522, 8.691574e-003,0.29999,60.00000,9.316619e-006
1248.94,307.364, 8.804278e-003,0.30003,60.00000,9.352866e-006
1256.94,305.137, 8.900515e-003,0.29998,60.00000,9.373767e-006
1264.94,304, 9.022314e-003,0.29998,60.00000,9.417659e-006
1272.94,301.958, 9.121299e-003,0.29998,60.00000,9.440203e-006
1280.94,300.434, 9.253667e-003,0.29998,60.00000,9.493255e-006
1288.94,299.145, 9.371546e-003,0.29998,60.00000,9.531932e-006
1296.94,297.161, 9.481492e-003,0.29995,60.00000,9.563168e-006
1304.94,295.709, 9.612859e-003,0.29999,60.00000,9.613192e-006
1312.94,294.225, 9.733862e-003,0.30000,60.00000,9.653024e-006
1320.94,292.352, 9.863811e-003,0.30000,60.00000,9.700605e-006
1328.94,290.649, 9.993029e-003,0.29999,60.00000,9.746771e-006
1336.94,289.187, 1.013501e-002,0.29999,60.00000,9.803533e-006
1344.94,287.446, 1.027143e-002,0.29999,60.00000,9.854723e-006
1352.94,285.883, 1.041090e-002,0.30000,60.00000,9.907640e-006
1360.94,284.229, 1.055377e-002,0.30001,60.00000,9.962961e-006
1368.94,282.64, 1.070347e-002,0.30000,60.00000,1.002329e-005
1376.94,281.146, 1.086471e-002,0.29999,60.00000,1.009282e-005
1384.94,279.79, 1.102583e-002,0.30001,60.00000,1.016120e-005
1392.94,278.411, 1.118654e-002,0.29998,60.00000,1.022838e-005
1399.94,277.126, 1.133316e-002,0.30000,60.00000,1.029124e-005